volunteer,channel,ETC for EyesOpen,ETC for EyesClosed,Difference EO - EC
S001,Fc5.,0.025627669548911346,0.09417647671632462,-0.06854880716741327
S001,Fc3.,0.07052818001875195,0.09230128138347744,-0.02177310136472549
S001,Fc1.,0.07959162412751328,0.09688509219710387,-0.01729346806959059
S001,Fcz.,0.0884467131992916,0.09584331701218878,-0.007396603812897182
S001,Fc2.,0.08698822794041046,0.09594749453068029,-0.008959266590269827
S001,Fc4.,0.0874049380143765,0.09594749453068029,-0.008542556516303784
S001,Fc6.,0.092822168975935,0.09771851234503594,-0.004896343369100942
S001,C5..,0.03177414313991041,0.09980206271486614,-0.06802791957495573
S001,C3..,0.07657047609125951,0.09980206271486614,-0.023231586623606623
S001,C1..,0.08146681946036045,0.09521825190123971,-0.013751432440879258
S001,Cz..,0.0853213876445463,0.09480154182727367,-0.009480154182727366
S001,C2..,0.08490467757058028,0.09459318679029066,-0.009688509219710387
S001,C4..,0.08698822794041046,0.0916762162725284,-0.004687988332117934
S001,C6..,0.09386394416085009,0.1027190332326284,-0.008855089071778316
S001,Cp5.,0.05729763517033024,0.10157308052922179,-0.044275445358891545
S001,Cp3.,0.07886238149807272,0.09573913949369726,-0.016876757995624547
S001,Cp1.,0.07636212105427649,0.0962600270861548,-0.019897906031878312
S001,Cpz.,0.08011251171997083,0.09709344723408689,-0.016980935514116058
S001,Cp2.,0.08375872486717366,0.09542660693822273,-0.011667882071049074
S001,Cp4.,0.08573809771851235,0.08438378997812272,0.0013543077403896236
S001,Cp6.,0.07719554120220856,0.09532242941973122,-0.01812688821752266
S001,Fp1.,0.05917283050317741,0.07396603812897176,-0.01479320762579435
S001,Fpz.,0.05802687779977081,0.08136264194186894,-0.023335764142098134
S001,Fp2.,0.05021356391290759,0.07625794353578498,-0.026044379622877388
S001,Af7.,0.06292322116887175,0.07459110323992083,-0.011667882071049074
S001,Af3.,0.05813105531826232,0.07521616835086989,-0.01708511303260757
S001,Afz.,0.07063235753724346,0.08886342327325764,-0.01823106573601417
S001,Af4.,0.055526617355974583,0.07521616835086989,-0.019689550994895305
S001,Af8.,0.06292322116887175,0.07156995520366705,-0.008646734034795295
S001,F7..,0.02052297114282738,0.08448796749661423,-0.06396499635378686
S001,F5..,0.05302635691217835,0.0885508907177831,-0.035524533805604754
S001,F3..,0.07282008542556516,0.08459214501510574,-0.011772059589540584
S001,F1..,0.076466298572768,0.0929263464944265,-0.016460047921658505
S001,Fz..,0.08167517449734348,0.09428065423481613,-0.012605479737472655
S001,F2..,0.08105010938639441,0.09803104490051047,-0.016980935514116058
S001,F4..,0.08052922179393687,0.09469736430878216,-0.014168142514845286
S001,F6..,0.07532034586936139,0.08323783727471612,-0.007917491405354735
S001,F8..,0.04073340973018023,0.07167413272215856,-0.03094072299197833
S001,Ft7.,0.022710699031149077,0.09823939993749349,-0.07552870090634442
S001,Ft8.,0.04969267632045005,0.09407229919783311,-0.04437962287738306
S001,T7..,0.027711219918741536,0.10594853630586519,-0.07823731638712365
S001,T8..,0.103864985936035,0.12720075007813314,-0.023335764142098134
S001,T9..,0.021460568809250964,0.09917699760391707,-0.07771642879466611
S001,T10.,0.04990103135743307,0.1254297322637775,-0.07552870090634442
S001,Tp7.,0.02937806021460569,0.09813522241900198,-0.06875716220439629
S001,Tp8.,0.07282008542556516,0.0755287009063444,-0.0027086154807792473
S001,P7..,0.052401291801229294,0.10230232315866236,-0.04990103135743307
S001,P5..,0.06865298468590478,0.10094801541827274,-0.03229503073236796
S001,P3..,0.07896655901656423,0.09344723408688405,-0.014480675070319818
S001,P1..,0.07886238149807272,0.09698926971559538,-0.01812688821752266
S001,Pz..,0.07667465360975101,0.09657255964162934,-0.019897906031878326
S001,P2..,0.0755287009063444,0.09751015730805292,-0.02198145640170851
S001,P4..,0.07469528075841234,0.09751015730805292,-0.02281487654964058
S001,P6..,0.0807375768309199,0.09886446504844254,-0.018126888217522646
S001,P8..,0.08917595582873215,0.098343577455985,-0.009167621627252848
S001,Po7.,0.07573705594332743,0.09386394416085009,-0.01812688821752266
S001,Po3.,0.07615376601729347,0.09250963642046046,-0.016355870403166994
S001,Poz.,0.07729971872070007,0.09105115116157933,-0.013751432440879258
S001,Po4.,0.08730076049588499,0.08990519845817273,-0.0026044379622877367
S001,Po8.,0.0907386186061048,0.081987707052818,0.008750911553286791
S001,O1..,0.08167517449734348,0.0862589853109699,-0.004583810813626424
S001,Oz..,0.0786540264610897,0.08677987290342744,-0.008125846442337742
S001,O2..,0.08219606208980101,0.08823835816230857,-0.006042296072507558
S001,Iz..,0.0818835295343265,0.08834253568080008,-0.0064590061464735865
S002,Fc5.,0.11563704552557558,0.12938847796645483,-0.013751432440879258
S002,Fc3.,0.07344515053651422,0.11980414626523596,-0.046358995728721736
S002,Fc1.,0.05802687779977081,0.1180331284508803,-0.0600062506511095
S002,Fcz.,0.0742785706844463,0.10771955412022086,-0.03344098343577456
S002,Fc2.,0.04990103135743307,0.11532451297010106,-0.06542348161266799
S002,Fc4.,0.07938326909053027,0.10834461923116992,-0.02896135014063965
S002,Fc6.,0.0862589853109699,0.11636628815501615,-0.030107302844046252
S002,C5..,0.11407438274820293,0.13407646629857276,-0.020002083550369823
S002,C3..,0.08865506823627461,0.11594957808105011,-0.027294509844775494
S002,C1..,0.06865298468590478,0.08146681946036045,-0.012813834774455676
S002,Cz..,0.0874049380143765,0.0818835295343265,0.005521408480050005
S002,C2..,0.06813209709344724,0.08396707990415668,-0.01583498281070944
S002,C4..,0.08605063027398688,0.08938431086571517,-0.003333680591728297
S002,C6..,0.08782164808834253,0.09969788519637462,-0.011876237108032095
S002,Cp5.,0.1169913532659652,0.11688717574747369,0.00010417751849151058
S002,Cp3.,0.09792686738201896,0.1081362641941869,-0.01020939681216794
S002,Cp1.,0.12115845400562558,0.07698718616522554,0.04417126784040004
S002,Cpz.,0.10896968434211897,0.10355245338056047,0.005417230961558495
S002,Cp2.,0.11115741223044068,0.09032190853213877,0.020835503698301908
S002,Cp4.,0.12220022919054069,0.081987707052818,0.04021252213772268
S002,Cp6.,0.10980310449005105,0.08375872486717366,0.026044379622877395
S002,Fp1.,0.0634441087613293,0.12074174393165955,-0.05729763517033025
S002,Fpz.,0.060631315762058546,0.10678195645379727,-0.04615064069173873
S002,Fp2.,0.065631836649651,0.114699447859152,-0.049067611209501
S002,Af7.,0.06573601416814251,0.08011251171997083,-0.014376497551828321
S002,Af3.,0.023439941660589644,0.1225127617460152,-0.09907282008542556
S002,Afz.,0.03292009584331701,0.11959579122825294,-0.08667569538493593
S002,Af4.,0.08761329305135952,0.12365871444942181,-0.036045421398062286
S002,Af8.,0.11459527034066049,0.10834461923116992,0.006250651109490565
S002,F7..,0.10042712782581519,0.12865923533701426,-0.028232107511199075
S002,F5..,0.06823627461193875,0.13209709344723408,-0.06386081883529533
S002,F3..,0.05417230961558496,0.12615897489321803,-0.07198666527763307
S002,F1..,0.05396395457860194,0.11678299822898218,-0.06281904365038024
S002,Fz..,0.06417335139076988,0.11376185019272841,-0.049588498801958536
S002,F2..,0.06761120950098969,0.11438691530367746,-0.04677570580268778
S002,F4..,0.0678195645379727,0.11188665485988124,-0.04406709032190853
S002,F6..,0.0916762162725284,0.09053026356912178,0.0011459527034066164
S002,F8..,0.028232107511199082,0.13470153140952182,-0.10646942389832273
S002,Ft7.,0.06219397853943119,0.12438795707886238,-0.06219397853943119
S002,Ft8.,0.0939681216793416,0.13251380352120012,-0.038545681841858526
S002,T7..,0.13490988644650484,0.13511824148348786,-0.00020835503698302116
S002,T8..,0.11636628815501615,0.14678612355453693,-0.030419835399520784
S002,T9..,0.06719449942702364,0.1399104073340973,-0.07271590790707365
S002,T10.,0.08677987290342744,0.1465777685175539,-0.059797895614126476
S002,Tp7.,0.14303573288884258,0.1322012709657256,0.01083446192311699
S002,Tp8.,0.11428273778518595,0.10876132930513595,0.005521408480050005
S002,P7..,0.12855505781852275,0.11407438274820293,0.014480675070319818
S002,P5..,0.11438691530367746,0.11313678508177935,0.001250130221898113
S002,P3..,0.11667882071049068,0.0862589853109699,0.030419835399520784
S002,P1..,0.11344931763725388,0.07198666527763309,0.041462652359620794
S002,Pz..,0.1071986665277633,0.07469528075841234,0.03250338576935097
S002,P2..,0.12615897489321803,0.06531930409417648,0.060839670799041554
S002,P4..,0.12084592145015106,0.07073653505573498,0.05010938639441609
S002,P6..,0.10146890301073029,0.07823731638712365,0.023231586623606637
S002,P8..,0.12928430044796332,0.0918845713095114,0.03739972913845192
S002,Po7.,0.11647046567350766,0.09667673716012085,0.019793728513386816
S002,Po3.,0.11334514011876237,0.10563600375039067,0.0077091363683717
S002,Poz.,0.11292843004479633,0.07698718616522554,0.03594124387957079
S002,Po4.,0.1245963121158454,0.07313261798103969,0.05146369413480571
S002,Po8.,0.1213668090426086,0.09386394416085009,0.027502864881758515
S002,O1..,0.01104281696010001,0.10553182623189916,-0.09448900927179915
S002,Oz..,0.12511719970830296,0.11334514011876237,0.011772059589540584
S002,O2..,0.12751328263360767,0.10907386186061048,0.018439420772997192
S002,Iz..,0.12470048963433691,0.11490780289613502,0.009792686738201897
S003,Fc5.,0.06375664131680384,0.08365454734868215,-0.019897906031878312
S003,Fc3.,0.06240233357641421,0.08344619231169914,-0.02104385873528493
S003,Fc1.,0.059589540577143454,0.0907386186061048,-0.031149078028961344
S003,Fcz.,0.04990103135743307,0.08990519845817273,-0.04000416710073966
S003,Fc2.,0.041566829878112305,0.0907386186061048,-0.049171788727992494
S003,Fc4.,0.022710699031149077,0.08396707990415668,-0.0612563808730076
S003,Fc6.,0.025419314511928325,0.08063339931242838,-0.05521408480050006
S003,C5..,0.0754245233878529,0.08407125742264819,-0.008646734034795295
S003,C3..,0.07740389623919158,0.0885508907177831,-0.011146994478591521
S003,C1..,0.07636212105427649,0.09605167204917178,-0.01968955099489529
S003,Cz..,0.07834149390561516,0.09250963642046046,-0.0141681425148453
S003,C2..,0.07198666527763309,0.08323783727471612,-0.011251171997083032
S003,C4..,0.07740389623919158,0.07729971872070007,0.00010417751849151058
S003,C6..,0.08677987290342744,0.07073653505573498,0.016043337847692463
S003,Cp5.,0.08375872486717366,0.0917803937910199,-0.008021668923846245
S003,Cp3.,0.0655276591311595,0.09584331701218878,-0.030315657881029273
S003,Cp1.,0.08511303260756328,0.0962600270861548,-0.011146994478591521
S003,Cpz.,0.0885508907177831,0.09678091467861236,-0.008230023960829252
S003,Cp2.,0.09125950619856235,0.08865506823627461,0.0026044379622877367
S003,Cp4.,0.0776122512761746,0.08803000312532555,-0.010417751849150947
S003,Cp6.,0.06000625065110949,0.06083967079904157,-0.0008334201479320777
S003,Fp1.,0.0196895509948953,0.08865506823627461,-0.06896551724137931
S003,Fpz.,0.017189290551099072,0.09021773101364726,-0.0730284404625482
S003,Fp2.,0.02916970517762267,0.07532034586936139,-0.046150640691738715
S003,Af7.,0.02437753932701323,0.08427961245963121,-0.059902073132617986
S003,Af3.,0.013855609959370768,0.092822168975935,-0.07896655901656423
S003,Afz.,0.012501302218981145,0.08386290238566517,-0.07136160016668402
S003,Af4.,0.013647254922387749,0.07490363579539536,-0.06125638087300761
S003,Af8.,0.014897385144285864,0.07469528075841234,-0.059797895614126476
S003,F7..,0.014689030107302844,0.08292530471924159,-0.06823627461193875
S003,F5..,0.0153140952182519,0.08615480779247839,-0.07084071257422649
S003,F3..,0.017293468069590583,0.08928013334722366,-0.07198666527763309
S003,F1..,0.023335764142098134,0.09094697364308782,-0.06761120950098969
S003,Fz..,0.017397645588082093,0.08688405042191895,-0.06948640483383686
S003,F2..,0.011772059589540577,0.08698822794041046,-0.07521616835086989
S003,F4..,0.012813834774455673,0.08334201479320763,-0.07052818001875195
S003,F6..,0.01114699447859152,0.07313261798103969,-0.06198562350244817
S003,F8..,0.011563704552557558,0.07521616835086989,-0.06365246379831233
S003,Ft7.,0.04292113761850193,0.08573809771851235,-0.04281696010001042
S003,Ft8.,0.018751953328471717,0.07084071257422649,-0.05208875924575477
S003,T7..,0.08563392020002084,0.09136368371705386,-0.005729763517033026
S003,T8..,0.08865506823627461,0.08500885508907177,0.0036462131472028425
S003,T9..,0.070944890092718,0.09896864256693405,-0.028023752474216054
S003,T10.,0.07219502031461611,0.07334097301802271,-0.0011459527034066025
S003,Tp7.,0.05229711428273778,0.09876028752995103,-0.046463173247213246
S003,Tp8.,0.07823731638712365,0.06542348161266799,0.012813834774455662
S003,P7..,0.0634441087613293,0.09053026356912178,-0.027086154807792473
S003,P5..,0.065631836649651,0.08875924575476613,-0.023127409105115126
S003,P3..,0.08928013334722366,0.0884467131992916,0.0008334201479320708
S003,P1..,0.07719554120220856,0.09521825190123971,-0.01802271069903115
S003,Pz..,0.08042504427544536,0.08125846442337743,-0.0008334201479320708
S003,P2..,0.08480050005208876,0.08209188457130952,0.0027086154807792473
S003,P4..,0.06636107927909157,0.08938431086571517,-0.023023231586623602
S003,P6..,0.07604958849880196,0.0863631628294614,-0.010313574330659436
S003,P8..,0.07771642879466611,0.08886342327325764,-0.011146994478591521
S003,Po7.,0.07594541098031045,0.08834253568080008,-0.012397124700489634
S003,Po3.,0.07917491405354725,0.09021773101364726,-0.01104281696010001
S003,Poz.,0.08125846442337743,0.08688405042191895,-0.005625585998541516
S003,Po4.,0.09459318679029066,0.07625794353578498,0.01833524325450568
S003,Po8.,0.08657151786644442,0.08323783727471612,0.003333680591728297
S003,O1..,0.08344619231169914,0.08250859464527555,0.0009375976664235952
S003,Oz..,0.0874049380143765,0.0754245233878529,0.011980414626523606
S003,O2..,0.09136368371705386,0.06813209709344724,0.023231586623606623
S003,Iz..,0.07469528075841234,0.08813418064381706,-0.013438899885404726
S004,Fc5.,0.007813313886863215,0.09469736430878216,-0.08688405042191895
S004,Fc3.,0.018543598291488696,0.034274403583706634,-0.015730805292217938
S004,Fc1.,0.030107302844046255,0.07688300864673403,-0.04677570580268778
S004,Fcz.,0.01114699447859152,0.0907386186061048,-0.07959162412751328
S004,Fc2.,0.010626106886133972,0.09063444108761329,-0.08000833420147932
S004,Fc4.,0.007084071257422648,0.08573809771851235,-0.0786540264610897
S004,Fc6.,0.006875716220439629,0.08761329305135952,-0.0807375768309199
S004,C5..,0.047609125950619856,0.07271590790707365,-0.025106781956453793
S004,C3..,0.05583914991144911,0.05625585998541515,-0.0004167100739660423
S004,C1..,0.04021252213772268,0.0863631628294614,-0.046150640691738715
S004,Cz..,0.04490051046984061,0.09959370767788311,-0.054693197208042506
S004,C2..,0.030315657881029273,0.09761433482654443,-0.06729867694551515
S004,C4..,0.02864881758516512,0.08490467757058028,-0.05625585998541516
S004,C6..,0.022814876549640588,0.08865506823627461,-0.06584019168663402
S004,Cp5.,0.05583914991144911,0.08021668923846234,-0.024377539327013233
S004,Cp3.,0.05531826231899156,0.08448796749661423,-0.02916970517762267
S004,Cp1.,0.048546723617043444,0.08761329305135952,-0.03906656943431608
S004,Cpz.,0.06479841650171893,0.08750911553286801,-0.022710699031149084
S004,Cp2.,0.05813105531826232,0.09021773101364726,-0.03208667569538494
S004,Cp4.,0.06677778935305761,0.07375768309198875,-0.006979893738931139
S004,Cp6.,0.025210959474945307,0.06854880716741327,-0.04333784769246796
S004,Fp1.,0.05583914991144911,0.08834253568080008,-0.032503385769350975
S004,Fpz.,0.0557349723929576,0.09615584956766329,-0.040420877174705695
S004,Fp2.,0.06000625065110949,0.08052922179393687,-0.020522971142827383
S004,Af7.,0.0665694343160746,0.08177935201583499,-0.015209917699760392
S004,Af3.,0.04969267632045005,0.09636420460464631,-0.04667152828419627
S004,Afz.,0.012188769663506615,0.07896655901656423,-0.06677778935305761
S004,Af4.,0.02896135014063965,0.04646317324721325,-0.017501823106573604
S004,Af8.,0.08250859464527555,0.03292009584331701,0.049588498801958536
S004,F7..,0.036462131472028335,0.07396603812897176,-0.03750390665694343
S004,F5..,0.029273882696114178,0.08032086675695385,-0.05104698406083967
S004,F3..,0.011563704552557558,0.07719554120220856,-0.065631836649651
S004,F1..,0.008021668923846235,0.08938431086571517,-0.08136264194186894
S004,Fz..,0.0065631836649651006,0.0993853526409001,-0.092822168975935
S004,F2..,0.0073966038128971765,0.08771747056985102,-0.08032086675695384
S004,F4..,0.007604958849880196,0.0852172101260548,-0.0776122512761746
S004,F6..,0.02437753932701323,0.06636107927909157,-0.04198353995207835
S004,F8..,0.028336285029690593,0.0590686529846859,-0.03073236795499531
S004,Ft7.,0.014376497551828316,0.09573913949369726,-0.08136264194186894
S004,Ft8.,0.03708719658297739,0.061777268465465156,-0.024690071882487764
S004,T7..,0.02708615480779248,0.08813418064381706,-0.06104802583602458
S004,T8..,0.010834461923116991,0.0862589853109699,-0.07542452338785291
S004,T9..,0.04094176476716325,0.09094697364308782,-0.05000520887592457
S004,T10.,0.058651942910719866,0.0579227002812793,0.0007292426294405671
S004,Tp7.,0.07386186061048026,0.08938431086571517,-0.01552245025523491
S004,Tp8.,0.05104698406083967,0.07917491405354725,-0.02812792999270758
S004,P7..,0.0503177414313991,0.07052818001875195,-0.02021043858735285
S004,P5..,0.038337326804875504,0.08052922179393687,-0.04219189498906137
S004,P3..,0.08313365975622461,0.09198874882800291,-0.008855089071778302
S004,P1..,0.04896343369100948,0.09261381393895197,-0.043650380247942495
S004,Pz..,0.050526096468382124,0.09605167204917178,-0.04552557558078966
S004,P2..,0.06021460568809251,0.05729763517033024,0.0029169705177622685
S004,P4..,0.04646317324721325,0.04833836858006042,-0.0018751953328471696
S004,P6..,0.06969475987081988,0.09375976664235858,-0.024065006771538694
S004,P8..,0.06406917387227837,0.09303052401291802,-0.02896135014063965
S004,Po7.,0.07229919783310762,0.0864673403479529,-0.014168142514845286
S004,Po3.,0.06636107927909157,0.09480154182727367,-0.028440462548182097
S004,Poz.,0.07136160016668402,0.09344723408688405,-0.02208563392020002
S004,Po4.,0.061568913428482135,0.09053026356912178,-0.028961350140639643
S004,Po8.,0.0743827482029378,0.08615480779247839,-0.011772059589540584
S004,O1..,0.07521616835086989,0.08938431086571517,-0.014168142514845286
S004,Oz..,0.07136160016668402,0.09230128138347744,-0.020939681216793418
S004,O2..,0.08657151786644442,0.08677987290342744,-0.00020835503698302116
S004,Iz..,0.08292530471924159,0.09323887904990102,-0.010313574330659436
S005,Fc5.,0.08667569538493593,0.08375872486717366,0.0029169705177622685
S005,Fc3.,0.0852172101260548,0.08803000312532555,-0.002812792999270758
S005,Fc1.,0.059693718095634965,0.05229711428273778,0.007396603812897182
S005,Fcz.,0.06427752890926137,0.05833941035524534,0.005938118554016034
S005,Fc2.,0.0567767475778727,0.08438378997812272,-0.027607042400250026
S005,Fc4.,0.07219502031461611,0.07240337535159913,-0.00020835503698302116
S005,Fc6.,0.0776122512761746,0.07594541098031045,0.0016668402958641554
S005,C5..,0.07167413272215856,0.07125742264819251,0.0004167100739660423
S005,C3..,0.05198458172726326,0.05188040420877175,0.00010417751849151058
S005,C1..,0.06292322116887175,0.06959058235232837,-0.0066673611834566215
S005,Cz..,0.0589644754661944,0.05938118554016043,-0.0004167100739660354
S005,C2..,0.0864673403479529,0.08709240545890197,-0.0006250651109490635
S005,C4..,0.04823419106156891,0.049380143764975515,-0.0011459527034066025
S005,C6..,0.07990415668298781,0.08386290238566517,-0.00395874570267736
S005,Cp5.,0.10449005104698406,0.11678299822898218,-0.012292947181998123
S005,Cp3.,0.05208875924575477,0.05229711428273778,-0.00020835503698301422
S005,Cp1.,0.05938118554016043,0.05771434524429628,0.0016668402958641554
S005,Cpz.,0.051567871653297216,0.05198458172726326,-0.0004167100739660423
S005,Cp2.,0.04990103135743307,0.04990103135743307,0.0
S005,Cp4.,0.050734451505365145,0.05188040420877175,-0.0011459527034066025
S005,Cp6.,0.09813522241900198,0.09542660693822273,0.0027086154807792473
S005,Fp1.,0.05625585998541515,0.05615168246692364,0.00010417751849151058
S005,Fpz.,0.05886029794770289,0.04927596624648401,0.009584331701218876
S005,Fp2.,0.07823731638712365,0.054589019689550995,0.02364829669757266
S005,Af7.,0.08209188457130952,0.07479945827690385,0.007292426294405671
S005,Af3.,0.06802791957495573,0.06240233357641421,0.005625585998541516
S005,Afz.,0.06698614439004064,0.0590686529846859,0.007917491405354735
S005,Af4.,0.09469736430878216,0.06750703198249818,0.027190332326283984
S005,Af8.,0.10594853630586519,0.05990207313261798,0.04604646317324721
S005,F7..,0.08709240545890197,0.09240545890196895,-0.005313053443066984
S005,F5..,0.08313365975622461,0.08459214501510574,-0.0014584852588811342
S005,F3..,0.08125846442337743,0.08886342327325764,-0.007604958849880203
S005,F1..,0.07490363579539536,0.061673090946973645,0.013230544848421712
S005,Fz..,0.06594436920512553,0.052713824356703826,0.013230544848421705
S005,F2..,0.06729867694551515,0.05531826231899156,0.011980414626523592
S005,F4..,0.08052922179393687,0.06354828627982081,0.016980935514116058
S005,F6..,0.09844775497447651,0.06927804979685384,0.02916970517762267
S005,F8..,0.11751224085842275,0.08167517449734348,0.03583706636107928
S005,Ft7.,0.08209188457130952,0.076466298572768,0.005625585998541516
S005,Ft8.,0.04667152828419627,0.039691634545265135,0.0069798937389311325
S005,T7..,0.09303052401291802,0.0807375768309199,0.012292947181998123
S005,T8..,0.06584019168663402,0.06584019168663402,0.0
S005,T9..,0.06115220335451609,0.05740181268882175,0.003750390665694339
S005,T10.,0.0830294822377331,0.0720908427961246,0.0109386394416085
S005,Tp7.,0.09219710386498593,0.09334305656839254,-0.0011459527034066025
S005,Tp8.,0.054797374726534016,0.05417230961558496,0.0006250651109490565
S005,P7..,0.0775080737576831,0.07313261798103969,0.004375455776643403
S005,P5..,0.0864673403479529,0.08490467757058028,0.001562662777372631
S005,P3..,0.05292217939368684,0.05417230961558496,-0.00125013022189812
S005,P1..,0.007917491405354724,0.0665694343160746,-0.05865194291071987
S005,Pz..,0.05802687779977081,0.05979789561412647,-0.001771017814355659
S005,P2..,0.05229711428273778,0.05583914991144911,-0.003542035628711325
S005,P4..,0.05365142202312741,0.05406813209709345,-0.0004167100739660423
S005,P6..,0.08177935201583499,0.08407125742264819,-0.002291905406813205
S005,P8..,0.07532034586936139,0.07719554120220856,-0.0018751953328471765
S005,Po7.,0.07615376601729347,0.0775080737576831,-0.0013543077403896236
S005,Po3.,0.06417335139076988,0.06500677153870195,-0.0008334201479320708
S005,Poz.,0.0918845713095114,0.09844775497447651,-0.006563183664965111
S005,Po4.,0.05229711428273778,0.05344306698614439,-0.0011459527034066094
S005,Po8.,0.09105115116157933,0.08594645275549537,0.005104698406083963
S005,O1..,0.07313261798103969,0.08344619231169914,-0.01031357433065945
S005,Oz..,0.06594436920512553,0.06896551724137931,-0.003021148036253779
S005,O2..,0.04885925617251797,0.05115116157933118,-0.002291905406813212
S005,Iz..,0.10542764871340765,0.09969788519637462,0.005729763517033026
S006,Fc5.,0.11021981456401708,0.12938847796645483,-0.019168663402437752
S006,Fc3.,0.049380143764975515,0.12313782685696427,-0.07375768309198875
S006,Fc1.,0.04802583602458589,0.12209605167204918,-0.07407021564746329
S006,Fcz.,0.036357953953536824,0.1179289509323888,-0.08157099697885198
S006,Fc2.,0.027294509844775498,0.12490884467131994,-0.09761433482654444
S006,Fc4.,0.02656526721533493,0.12365871444942181,-0.09709344723408687
S006,Fc6.,0.05083862902385665,0.13355557870611523,-0.08271694968225858
S006,C5..,0.09323887904990102,0.11657464319199917,-0.023335764142098148
S006,C3..,0.09688509219710387,0.11949161370976143,-0.02260652151265756
S006,C1..,0.06365246379831233,0.1190749036357954,-0.05542243983748307
S006,Cz..,0.05417230961558496,0.11761641837691426,-0.0634441087613293
S006,C2..,0.05177622669028024,0.12105427648713407,-0.06927804979685384
S006,C4..,0.08375872486717366,0.12084592145015106,-0.037087196582977405
S006,C6..,0.11344931763725388,0.12720075007813314,-0.013751432440879258
S006,Cp5.,0.10480258360245859,0.1190749036357954,-0.01427232003333681
S006,Cp3.,0.09803104490051047,0.12292947181998125,-0.02489842691947078
S006,Cp1.,0.0993853526409001,0.12292947181998125,-0.023544119179081155
S006,Cpz.,0.11417856026669444,0.11959579122825294,-0.005417230961558495
S006,Cp2.,0.08834253568080008,0.12272111678299823,-0.034378581102198144
S006,Cp4.,0.08990519845817273,0.12188769663506616,-0.03198249817689343
S006,Cp6.,0.09813522241900198,0.11574122304406709,-0.017606000625065107
S006,Fp1.,0.014480675070319825,0.13084696322533598,-0.11636628815501615
S006,Fpz.,0.01343889988540473,0.11532451297010106,-0.10188561308469633
S006,Fp2.,0.013959787477862277,0.11615793311803313,-0.10219814564017085
S006,Af7.,0.015105740181268883,0.13709761433482653,-0.12199187415355765
S006,Af3.,0.0153140952182519,0.1386602771121992,-0.12334618189394729
S006,Afz.,0.014689030107302844,0.1190749036357954,-0.10438587352849256
S006,Af4.,0.014063964996353788,0.13928534222314826,-0.12522137722679447
S006,Af8.,0.015209917699760392,0.14116053755599542,-0.125950619856235
S006,F7..,0.02041879362433587,0.13668090426086052,-0.11626211063652465
S006,F5..,0.019377018439420773,0.12438795707886238,-0.10501093863944161
S006,F3..,0.019272840920929263,0.1234503594124388,-0.10417751849150954
S006,F1..,0.018543598291488696,0.12199187415355767,-0.10344827586206898
S006,Fz..,0.01843942077299719,0.12292947181998125,-0.10449005104698406
S006,F2..,0.01812688821752266,0.12324200437545578,-0.10511511615793312
S006,F4..,0.01802271069903115,0.12167934159808313,-0.10365663089905199
S006,F6..,0.017189290551099072,0.13303469111365768,-0.1158454005625586
S006,F8..,0.01812688821752266,0.1299093655589124,-0.11178247734138973
S006,Ft7.,0.10521929367642463,0.10688613397228879,-0.0016668402958641554
S006,Ft8.,0.10303156578810292,0.12761746015209918,-0.02458589436399626
S006,T7..,0.10251067819564538,0.13209709344723408,-0.0295864152515887
S006,T8..,0.09438483175330764,0.12959683300343786,-0.035212001250130215
S006,T9..,0.12886759037399728,0.1300135430774039,-0.0011459527034066164
S006,T10.,0.1060527138243567,0.13480570892801333,-0.02875299510365663
S006,Tp7.,0.1322012709657256,0.13303469111365768,-0.0008334201479320846
S006,Tp8.,0.10084383789978123,0.12949265548494635,-0.028648817585165118
S006,P7..,0.12365871444942181,0.125950619856235,-0.002291905406813205
S006,P5..,0.12157516407959162,0.1267840400041671,-0.0052088759245754734
S006,P3..,0.1006354828627982,0.12126263152411709,-0.020627148661318886
S006,P1..,0.09886446504844254,0.1213668090426086,-0.022502343994166063
S006,Pz..,0.10678195645379727,0.12095009896864256,-0.014168142514845286
S006,P2..,0.09584331701218878,0.05302635691217835,0.042816960100010425
S006,P4..,0.11324096260027086,0.12303364933847276,-0.009792686738201897
S006,P6..,0.1125117199708303,0.12272111678299823,-0.010209396812167926
S006,P8..,0.09886446504844254,0.12845088030003127,-0.029586415251588727
S006,Po7.,0.12105427648713407,0.12647150744869257,-0.005417230961558495
S006,Po3.,0.1180331284508803,0.12647150744869257,-0.00843837899781226
S006,Poz.,0.10907386186061048,0.114699447859152,-0.005625585998541516
S006,Po4.,0.11074070215647464,0.12605479737472652,-0.015314095218251889
S006,Po8.,0.11011563704552557,0.12511719970830296,-0.015001562662777385
S006,O1..,0.11876237108032087,0.12532555474528598,-0.006563183664965111
S006,Oz..,0.10532347119491614,0.1148036253776435,-0.009480154182727366
S006,O2..,0.09876028752995103,0.12376289196791332,-0.02500260443796229
S006,Iz..,0.12845088030003127,0.13397228878008127,-0.005521408480050005
S007,Fc5.,0.07927909157203876,0.09313470153140953,-0.013855609959370768
S007,Fc3.,0.07719554120220856,0.09365558912386707,-0.016460047921658505
S007,Fc1.,0.08313365975622461,0.09375976664235858,-0.010626106886133968
S007,Fcz.,0.08313365975622461,0.0895926659026982,-0.0064590061464735865
S007,Fc2.,0.08386290238566517,0.0896968434211897,-0.005833941035524537
S007,Fc4.,0.08230023960829252,0.08896760079174915,-0.0066673611834566215
S007,Fc6.,0.08000833420147932,0.07844567142410667,0.0015626627773726448
S007,C5..,0.0971976247525784,0.09271799145744349,0.004479633295134913
S007,C3..,0.09000937597666424,0.09657255964162934,-0.006563183664965097
S007,C1..,0.08573809771851235,0.09344723408688405,-0.0077091363683717
S007,Cz..,0.08823835816230857,0.0974059797895614,-0.009167621627252834
S007,C2..,0.0830294822377331,0.08980102093968122,-0.006771538701948118
S007,C4..,0.08323783727471612,0.0896968434211897,-0.0064590061464735865
S007,C6..,0.09365558912386707,0.07834149390561516,0.015314095218251902
S007,Cp5.,0.08896760079174915,0.09876028752995103,-0.009792686738201883
S007,Cp3.,0.08771747056985102,0.09855193249296802,-0.010834461923117003
S007,Cp1.,0.08928013334722366,0.10219814564017085,-0.012918012292947187
S007,Cpz.,0.0853213876445463,0.10188561308469632,-0.016564225440150016
S007,Cp2.,0.08209188457130952,0.09219710386498593,-0.010105219293676415
S007,Cp4.,0.08386290238566517,0.09313470153140953,-0.009271799145744358
S007,Cp6.,0.07479945827690385,0.08146681946036045,-0.006667361183456608
S007,Fp1.,0.02854464006667361,0.07604958849880196,-0.04750494843212835
S007,Fpz.,0.034586936139181165,0.07990415668298781,-0.045317220543806644
S007,Fp2.,0.03323262839879154,0.08084175434941139,-0.04760912595061985
S007,Af7.,0.028023752474216065,0.07792478383164914,-0.04990103135743307
S007,Af3.,0.034691113657672676,0.08219606208980101,-0.04750494843212834
S007,Afz.,0.03708719658297739,0.0895926659026982,-0.052505469319720804
S007,Af4.,0.036670486509011356,0.08250859464527555,-0.04583810813626419
S007,Af8.,0.04083758724867174,0.08313365975622461,-0.04229607250755287
S007,F7..,0.04604646317324721,0.09146786123554537,-0.04542139806229816
S007,F5..,0.04687988332117929,0.09250963642046046,-0.045629753099281176
S007,F3..,0.05333888946765288,0.0852172101260548,-0.03187832065840191
S007,F1..,0.05198458172726326,0.08698822794041046,-0.0350036462131472
S007,Fz..,0.049380143764975515,0.09011355349515575,-0.040733409730180234
S007,F2..,0.05115116157933118,0.0862589853109699,-0.03510782373163872
S007,F4..,0.0447963329513491,0.09042608605063028,-0.04562975309928118
S007,F6..,0.08177935201583499,0.08792582560683404,-0.006146473590999055
S007,F8..,0.045733930617772686,0.08594645275549537,-0.04021252213772268
S007,Ft7.,0.0917803937910199,0.09250963642046046,-0.0007292426294405602
S007,Ft8.,0.06636107927909157,0.06959058235232837,-0.0032295030732368
S007,T7..,0.125533909782269,0.1092822168975935,0.016251692884675498
S007,T8..,0.09782268986352745,0.07729971872070007,0.020522971142827376
S007,T9..,0.08677987290342744,0.08761329305135952,-0.0008334201479320846
S007,T10.,0.030419835399520784,0.03125325554745286,-0.0008334201479320777
S007,Tp7.,0.0884467131992916,0.09459318679029066,-0.006146473590999069
S007,Tp8.,0.06948640483383686,0.0360454213980623,0.03344098343577456
S007,P7..,0.0862589853109699,0.09792686738201896,-0.01166788207104906
S007,P5..,0.0884467131992916,0.10021877278883216,-0.01177205958954057
S007,P3..,0.08980102093968122,0.10011459527034067,-0.01031357433065945
S007,P1..,0.09032190853213877,0.09823939993749349,-0.00791749140535472
S007,Pz..,0.08865506823627461,0.09865611001145953,-0.010001041775184918
S007,P2..,0.08730076049588499,0.098343577455985,-0.01104281696010001
S007,P4..,0.09063444108761329,0.10115637045525576,-0.010521929367642471
S007,P6..,0.08167517449734348,0.09375976664235858,-0.012084592145015102
S007,P8..,0.07031982498176893,0.08386290238566517,-0.013543077403896236
S007,Po7.,0.09490571934576518,0.09844775497447651,-0.003542035628711332
S007,Po3.,0.09136368371705386,0.10740702156474632,-0.016043337847692463
S007,Poz.,0.09115532868007084,0.10521929367642463,-0.01406396499635379
S007,Po4.,0.08573809771851235,0.0971976247525784,-0.011459527034066053
S007,Po8.,0.08552974268152932,0.10146890301073029,-0.015939160329200966
S007,O1..,0.09386394416085009,0.09990624023335765,-0.006042296072507558
S007,Oz..,0.1005313053443067,0.09969788519637462,0.0008334201479320708
S007,O2..,0.09053026356912178,0.10198979060318783,-0.011459527034066053
S007,Iz..,0.09646838212313782,0.10323992082508594,-0.006771538701948118
S008,Fc5.,0.06240233357641421,0.042504427544535886,0.019897906031878326
S008,Fc3.,0.059693718095634965,0.04490051046984061,0.014793207625794356
S008,Fc1.,0.060110428169601,0.04229607250755287,0.01781435566204813
S008,Fcz.,0.06875716220439629,0.04646317324721325,0.022293988957183035
S008,Fc2.,0.06511094905719346,0.04667152828419627,0.018439420772997192
S008,Fc4.,0.0655276591311595,0.0459422856547557,0.0195853734764038
S008,Fc6.,0.07261173038858214,0.037503906656943434,0.035107823731638704
S008,C5..,0.05813105531826232,0.042504427544535886,0.015626627773726434
S008,C3..,0.06094384831753308,0.05708928013334722,0.0038545681841858567
S008,C1..,0.06875716220439629,0.054484842171059485,0.014272320033336804
S008,Cz..,0.052609646838212315,0.060110428169601,-0.007500781331388685
S008,C2..,0.05115116157933118,0.05083862902385665,0.00031253255547453174
S008,C4..,0.04406709032190853,0.05188040420877175,-0.007813313886863217
S008,C6..,0.08459214501510574,0.0590686529846859,0.025523492030419842
S008,Cp5.,0.08573809771851235,0.05771434524429628,0.028023752474216068
S008,Cp3.,0.05219293676424627,0.0622981560579227,-0.010105219293676429
S008,Cp1.,0.05886029794770289,0.065631836649651,-0.006771538701948111
S008,Cpz.,0.05083862902385665,0.0665694343160746,-0.015730805292217945
S008,Cp2.,0.052818001875195336,0.06802791957495573,-0.015209917699760392
S008,Cp4.,0.05500572976351703,0.06490259402021044,-0.009896864256693408
S008,Cp6.,0.0579227002812793,0.04969267632045005,0.008230023960829252
S008,Fp1.,0.05833941035524534,0.06396499635378686,-0.005625585998541516
S008,Fpz.,0.04615064069173872,0.06542348161266799,-0.01927284092092927
S008,Fp2.,0.04198353995207834,0.061777268465465156,-0.019793728513386816
S008,Af7.,0.06792374205646422,0.06479841650171893,0.0031253255547452896
S008,Af3.,0.05594332742994062,0.061673090946973645,-0.005729763517033026
S008,Afz.,0.039691634545265135,0.05708928013334722,-0.017397645588082086
S008,Af4.,0.0579227002812793,0.0644858839462444,-0.006563183664965097
S008,Af8.,0.06865298468590478,0.06625690176060006,0.0023960829253047156
S008,F7..,0.04677570580268778,0.059589540577143454,-0.012813834774455676
S008,F5..,0.021043858735284925,0.03906656943431607,-0.018022710699031146
S008,F3..,0.02041879362433587,0.04031669965621419,-0.019897906031878323
S008,F1..,0.021460568809250964,0.03812897176789249,-0.016668402958641526
S008,Fz..,0.022814876549640588,0.039483279508282114,-0.016668402958641526
S008,F2..,0.03510782373163871,0.03989998958224815,-0.004792165850609438
S008,F4..,0.03562871132409626,0.04125429732263777,-0.005625585998541516
S008,F6..,0.036670486509011356,0.04406709032190853,-0.007396603812897175
S008,F8..,0.04073340973018023,0.05938118554016043,-0.018647775809980206
S008,Ft7.,0.08563392020002084,0.05302635691217835,0.032607563287842485
S008,Ft8.,0.015209917699760392,0.043546202729450985,-0.028336285029690593
S008,T7..,0.05875612042921138,0.0809459318679029,-0.022189811438691524
S008,T8..,0.08375872486717366,0.052505469319720804,0.031253255547452855
S008,T9..,0.06094384831753308,0.049380143764975515,0.011563704552557563
S008,T10.,0.07344515053651422,0.08365454734868215,-0.010209396812167926
S008,Tp7.,0.0939681216793416,0.07177831024065007,0.02218981143869153
S008,Tp8.,0.058651942910719866,0.05198458172726326,0.006667361183456608
S008,P7..,0.09053026356912178,0.07917491405354725,0.011355349515574528
S008,P5..,0.08011251171997083,0.07532034586936139,0.004792165850609445
S008,P3..,0.07261173038858214,0.06302739868736326,0.009584331701218876
S008,P1..,0.0809459318679029,0.07156995520366705,0.009375976664235855
S008,Pz..,0.06854880716741327,0.07177831024065007,-0.0032295030732368
S008,P2..,0.065631836649651,0.0677153870194812,-0.0020835503698301977
S008,P4..,0.06542348161266799,0.07021564746327742,-0.004792165850609431
S008,P6..,0.0655276591311595,0.06802791957495573,-0.002500260443796226
S008,P8..,0.07792478383164914,0.06219397853943119,0.015730805292217945
S008,Po7.,0.08563392020002084,0.06969475987081988,0.015939160329200952
S008,Po3.,0.07261173038858214,0.0688613397228878,0.003750390665694339
S008,Poz.,0.07917491405354725,0.06990311490780289,0.009271799145744358
S008,Po4.,0.061777268465465156,0.07354932805500573,-0.011772059589540577
S008,Po8.,0.07334097301802271,0.0688613397228878,0.004479633295134913
S008,O1..,0.09219710386498593,0.07948744660902177,0.012709657255964166
S008,Oz..,0.08000833420147932,0.07573705594332743,0.004271278258151892
S008,O2..,0.07136160016668402,0.05708928013334722,0.014272320033336804
S008,Iz..,0.09532242941973122,0.07896655901656423,0.016355870403166994
S009,Fc5.,0.06854880716741327,0.1300135430774039,-0.06146473590999063
S009,Fc3.,0.06302739868736326,0.13428482133555578,-0.07125742264819251
S009,Fc1.,0.06240233357641421,0.12532555474528598,-0.06292322116887177
S009,Fcz.,0.0678195645379727,0.1234503594124388,-0.055630794874466094
S009,Fc2.,0.09157203875403688,0.14032711740806333,-0.04875507865402645
S009,Fc4.,0.11553286800708407,0.14459839566621524,-0.029065527659131174
S009,Fc6.,0.14824460881341806,0.13480570892801333,0.013438899885404726
S009,C5..,0.10365663089905199,0.12167934159808313,-0.01802271069903115
S009,C3..,0.049484321283467025,0.12490884467131994,-0.07542452338785291
S009,C1..,0.0917803937910199,0.11532451297010106,-0.023544119179081155
S009,Cz..,0.10126054797374727,0.1266798624856756,-0.025419314511928318
S009,C2..,0.11094905719345766,0.13845192207521617,-0.027502864881758515
S009,C4..,0.12386706948640483,0.1431399104073341,-0.019272840920929263
S009,C6..,0.14168142514845297,0.14366079799979165,-0.0019793728513386732
S009,Cp5.,0.125742264819252,0.131055318262319,-0.005313053443067012
S009,Cp3.,0.11876237108032087,0.11553286800708407,0.0032295030732368
S009,Cp1.,0.11011563704552557,0.11459527034066049,-0.004479633295134913
S009,Cpz.,0.09605167204917178,0.10094801541827274,-0.004896343369100956
S009,Cp2.,0.12376289196791332,0.11376185019272841,0.010001041775184905
S009,Cp4.,0.12272111678299823,0.12272111678299823,0.0
S009,Cp6.,0.1356391290759454,0.13053443066986145,0.005104698406083963
S009,Fp1.,0.027398687363267008,0.125950619856235,-0.09855193249296801
S009,Fpz.,0.030211480362537766,0.09969788519637462,-0.06948640483383686
S009,Fp2.,0.025315136993436817,0.1006354828627982,-0.07532034586936139
S009,Af7.,0.04281696010001042,0.13157620585477653,-0.08875924575476611
S009,Af3.,0.027711219918741536,0.13803521200125013,-0.11032399208250859
S009,Afz.,0.027815397437233044,0.11657464319199917,-0.08875924575476613
S009,Af4.,0.050630273986873635,0.1463694134805709,-0.09573913949369725
S009,Af8.,0.065631836649651,0.09865611001145953,-0.033024273361808534
S009,F7..,0.03677466402750287,0.13147202833628502,-0.09469736430878214
S009,F5..,0.09542660693822273,0.13928534222314826,-0.043858735284925524
S009,F3..,0.0306281904365038,0.12740910511511616,-0.09678091467861236
S009,F1..,0.029690592770080217,0.1266798624856756,-0.09698926971559538
S009,Fz..,0.03417022606521513,0.13032607563287843,-0.09615584956766329
S009,F2..,0.04427544535889155,0.13845192207521617,-0.09417647671632462
S009,F4..,0.0481300135430774,0.13834774455672466,-0.09021773101364726
S009,F6..,0.12761746015209918,0.15657881029273882,-0.028961350140639636
S009,F8..,0.11761641837691426,0.12647150744869257,-0.008855089071778302
S009,Ft7.,0.04896343369100948,0.13803521200125013,-0.08907177831024066
S009,Ft8.,0.11886654859881238,0.15230753203458694,-0.03344098343577456
S009,T7..,0.13480570892801333,0.1505365142202313,-0.01573080529221796
S009,T8..,0.14803625377643503,0.11230336493384728,0.035732888842587754
S009,T9..,0.09959370767788311,0.136576726742369,-0.036983019064485895
S009,T10.,0.1331388686321492,0.12834670278153976,0.004792165850609431
S009,Tp7.,0.1386602771121992,0.14209813522241901,-0.0034378581102198214
S009,Tp8.,0.14303573288884258,0.13251380352120012,0.010521929367642457
S009,P7..,0.14043129492655484,0.13386811126158976,0.006563183664965083
S009,P5..,0.1169913532659652,0.1092822168975935,0.0077091363683717
S009,P3..,0.11074070215647464,0.09115532868007084,0.019585373476403795
S009,P1..,0.10844879674966142,0.06938222731534535,0.039066569434316065
S009,Pz..,0.10844879674966142,0.11563704552557558,-0.0071882487759141606
S009,P2..,0.11449109282216897,0.0993853526409001,0.015105740181268881
S009,P4..,0.11636628815501615,0.11730388582143973,-0.0009375976664235813
S009,P6..,0.0951140743827482,0.09407229919783311,0.001041775184915092
S009,P8..,0.10844879674966142,0.11772059589540577,-0.009271799145744358
S009,Po7.,0.125742264819252,0.12365871444942181,0.002083550369830184
S009,Po3.,0.10344827586206896,0.0994895301593916,0.00395874570267736
S009,Poz.,0.08365454734868215,0.10042712782581519,-0.016772580477133037
S009,Po4.,0.11094905719345766,0.10844879674966142,0.00250026044379624
S009,Po8.,0.12803417022606522,0.10792790915720388,0.020106261068861347
S009,O1..,0.10709448900927179,0.11178247734138973,-0.004687988332117934
S009,Oz..,0.11709553078445671,0.09855193249296802,0.01854359829148869
S009,O2..,0.11678299822898218,0.1148036253776435,0.0019793728513386732
S009,Iz..,0.12470048963433691,0.10855297426815293,0.016147515366183987
S010,Fc5.,0.06542348161266799,0.06073549328055006,0.004687988332117934
S010,Fc3.,0.06584019168663402,0.05886029794770289,0.0069798937389311325
S010,Fc1.,0.06375664131680384,0.06761120950098969,-0.00385456818418585
S010,Fcz.,0.05094280654234816,0.06000625065110949,-0.00906344410876133
S010,Fc2.,0.05490155224502553,0.06083967079904157,-0.0059381185540160406
S010,Fc4.,0.070944890092718,0.06917387227836233,0.001771017814355666
S010,Fc6.,0.03614959891655381,0.038233149286384,-0.0020835503698301908
S010,C5..,0.07969580164600479,0.07407021564746327,0.005625585998541516
S010,C3..,0.05688092509636421,0.041775184915095326,0.015105740181268881
S010,C1..,0.05990207313261798,0.07969580164600479,-0.01979372851338681
S010,Cz..,0.06927804979685384,0.07615376601729347,-0.006875716220439629
S010,C2..,0.06083967079904157,0.0666736118345661,-0.005833941035524537
S010,C4..,0.0589644754661944,0.05167204917178873,0.007292426294405671
S010,C6..,0.07896655901656423,0.05781852276278779,0.02114803625377644
S010,Cp5.,0.059693718095634965,0.05208875924575477,0.007604958849880196
S010,Cp3.,0.04927596624648401,0.047609125950619856,0.0016668402958641554
S010,Cp1.,0.07386186061048026,0.09490571934576518,-0.021043858735284915
S010,Cpz.,0.0634441087613293,0.056360037503906654,0.00708407125742265
S010,Cp2.,0.05719345765183873,0.06198562350244817,-0.004792165850609438
S010,Cp4.,0.0776122512761746,0.09313470153140953,-0.015522450255234924
S010,Cp6.,0.06573601416814251,0.059589540577143454,0.006146473590999055
S010,Fp1.,0.08219606208980101,0.03531617876862173,0.04687988332117928
S010,Fpz.,0.061673090946973645,0.025419314511928325,0.03625377643504532
S010,Fp2.,0.06479841650171893,0.034274403583706634,0.030524012918012294
S010,Af7.,0.0807375768309199,0.03625377643504532,0.04448380039587457
S010,Af3.,0.0786540264610897,0.03594124387957079,0.04271278258151891
S010,Afz.,0.06469423898322742,0.028127929992707575,0.03656630899051984
S010,Af4.,0.10730284404625481,0.03698301906448588,0.07031982498176893
S010,Af8.,0.07448692572142931,0.034274403583706634,0.04021252213772268
S010,F7..,0.06094384831753308,0.02458589436399625,0.03635795395353683
S010,F5..,0.08084175434941139,0.029273882696114178,0.05156787165329721
S010,F3..,0.06313157620585477,0.037503906656943434,0.02562766954891134
S010,F1..,0.05177622669028024,0.03677466402750287,0.01500156266277737
S010,Fz..,0.08313365975622461,0.04875507865402646,0.03437858110219815
S010,F2..,0.0732367954995312,0.043650380247942495,0.029586415251588706
S010,F4..,0.06115220335451609,0.03812897176789249,0.023023231586623602
S010,F6..,0.0830294822377331,0.043442025210959474,0.039587457026773624
S010,F8..,0.05979789561412647,0.04073340973018023,0.01906448588394624
S010,Ft7.,0.0579227002812793,0.045733930617772686,0.012188769663506613
S010,Ft8.,0.06188144598395666,0.05323471194916137,0.008646734034795288
S010,T7..,0.07511199083237838,0.04125429732263777,0.033857693509740605
S010,T8..,0.0755287009063444,0.038545681841858526,0.03698301906448588
S010,T9..,0.08261277216376706,0.05813105531826232,0.024481716845504736
S010,T10.,0.03979581206375664,0.03510782373163871,0.0046879883321179275
S010,Tp7.,0.05875612042921138,0.03989998958224815,0.018856130846963227
S010,Tp8.,0.041775184915095326,0.032503385769350975,0.009271799145744351
S010,P7..,0.0481300135430774,0.047713303469111366,0.0004167100739660354
S010,P5..,0.06365246379831233,0.05833941035524534,0.005313053443066984
S010,P3..,0.05781852276278779,0.0743827482029378,-0.016564225440150016
S010,P1..,0.08063339931242838,0.09125950619856235,-0.010626106886133968
S010,Pz..,0.08292530471924159,0.09448900927179915,-0.011563704552557563
S010,P2..,0.07834149390561516,0.09365558912386707,-0.015314095218251902
S010,P4..,0.0787582039795812,0.08709240545890197,-0.008334201479320763
S010,P6..,0.05813105531826232,0.07282008542556516,-0.014689030107302839
S010,P8..,0.045525575580789665,0.0447963329513491,0.0007292426294405671
S010,Po7.,0.0677153870194812,0.07344515053651422,-0.005729763517033026
S010,Po3.,0.04927596624648401,0.06323575372434628,-0.013959787477862272
S010,Poz.,0.08240441712678404,0.07417439316595478,0.008230023960829252
S010,Po4.,0.08584227523700386,0.06875716220439629,0.01708511303260757
S010,Po8.,0.056672570059381186,0.0645900614647359,-0.00791749140535472
S010,O1..,0.05781852276278779,0.07594541098031045,-0.01812688821752266
S010,Oz..,0.06719449942702364,0.06615272424210855,0.001041775184915092
S010,O2..,0.054589019689550995,0.05313053443066986,0.0014584852588811342
S010,Iz..,0.04458797791436608,0.056360037503906654,-0.011772059589540577
S011,Fc5.,0.0634441087613293,0.06021460568809251,0.0032295030732367933
S011,Fc3.,0.04469215543285759,0.06531930409417648,-0.020627148661318893
S011,Fc1.,0.045629753099281176,0.06500677153870195,-0.019377018439420773
S011,Fcz.,0.052401291801229294,0.07365350557349724,-0.02125221377226795
S011,Fc2.,0.04646317324721325,0.06636107927909157,-0.01989790603187832
S011,Fc4.,0.05094280654234816,0.07844567142410667,-0.027502864881758515
S011,Fc6.,0.029586415251588706,0.09053026356912178,-0.06094384831753307
S011,C5..,0.031565788102927386,0.06365246379831233,-0.03208667569538494
S011,C3..,0.05083862902385665,0.06219397853943119,-0.011355349515574542
S011,C1..,0.07198666527763309,0.07625794353578498,-0.004271278258151892
S011,Cz..,0.07344515053651422,0.08261277216376706,-0.009167621627252834
S011,C2..,0.06271486613188874,0.03875403687884155,0.023960829253047197
S011,C4..,0.07188248775914158,0.07625794353578498,-0.004375455776643403
S011,C6..,0.05823523283675383,0.08948848838420669,-0.031253255547452855
S011,Cp5.,0.06396499635378686,0.05886029794770289,0.00510469840608397
S011,Cp3.,0.058651942910719866,0.03812897176789249,0.020522971142827376
S011,Cp1.,0.06469423898322742,0.076466298572768,-0.011772059589540584
S011,Cpz.,0.07511199083237838,0.0818835295343265,-0.006771538701948118
S011,Cp2.,0.04240025002604438,0.05396395457860194,-0.011563704552557556
S011,Cp4.,0.07073653505573498,0.07854984894259819,-0.00781331388686321
S011,Cp6.,0.06073549328055006,0.07584123346181894,-0.015105740181268881
S011,Fp1.,0.041462652359620794,0.05375559954161892,-0.012292947181998123
S011,Fpz.,0.04885925617251797,0.05229711428273778,-0.0034378581102198144
S011,Fp2.,0.05531826231899156,0.06240233357641421,-0.00708407125742265
S011,Af7.,0.058547765392228356,0.05094280654234816,0.007604958849880196
S011,Af3.,0.017293468069590583,0.06584019168663402,-0.04854672361704344
S011,Afz.,0.015418272736743411,0.06542348161266799,-0.05000520887592458
S011,Af4.,0.019377018439420773,0.06969475987081988,-0.05031774143139911
S011,Af8.,0.06396499635378686,0.05365142202312741,0.01031357433065945
S011,F7..,0.017085113032607565,0.047609125950619856,-0.03052401291801229
S011,F5..,0.01760600062506511,0.06313157620585477,-0.045525575580789665
S011,F3..,0.01604333784769247,0.0666736118345661,-0.050630273986873635
S011,F1..,0.028336285029690593,0.06990311490780289,-0.0415668298781123
S011,Fz..,0.04104594228565476,0.07167413272215856,-0.030628190436503798
S011,F2..,0.02437753932701323,0.07709136368371705,-0.052713824356703826
S011,F4..,0.025523492030419835,0.08011251171997083,-0.054589019689550995
S011,F6..,0.021148036253776436,0.07854984894259819,-0.057401812688821746
S011,F8..,0.0196895509948953,0.07229919783310762,-0.052609646838212315
S011,Ft7.,0.05938118554016043,0.05875612042921138,0.0006250651109490565
S011,Ft8.,0.017397645588082093,0.043754557766434006,-0.026356912178351913
S011,T7..,0.06979893738931138,0.05344306698614439,0.016355870403166987
S011,T8..,0.09084279612459631,0.08990519845817273,0.0009375976664235813
S011,T9..,0.0720908427961246,0.0557349723929576,0.016355870403167
S011,T10.,0.09469736430878216,0.040629232211688716,0.05406813209709344
S011,Tp7.,0.08375872486717366,0.08500885508907177,-0.001250130221898113
S011,Tp8.,0.07844567142410667,0.08469632253359725,-0.006250651109490579
S011,P7..,0.05542243983748307,0.06969475987081988,-0.01427232003333681
S011,P5..,0.03771226169392645,0.07136160016668402,-0.03364933847275758
S011,P3..,0.06604854672361704,0.07511199083237838,-0.009063444108761337
S011,P1..,0.06021460568809251,0.08292530471924159,-0.022710699031149077
S011,Pz..,0.07031982498176893,0.08657151786644442,-0.016251692884675484
S011,P2..,0.05886029794770289,0.08157099697885196,-0.022710699031149077
S011,P4..,0.061777268465465156,0.0797999791644963,-0.018022710699031143
S011,P6..,0.07125742264819251,0.09146786123554537,-0.020210438587352858
S011,P8..,0.06083967079904157,0.07907073653505574,-0.01823106573601417
S011,Po7.,0.01145952703406605,0.08584227523700386,-0.0743827482029378
S011,Po3.,0.036357953953536824,0.0786540264610897,-0.04229607250755287
S011,Poz.,0.06438170642775289,0.081987707052818,-0.01760600062506512
S011,Po4.,0.07823731638712365,0.09594749453068029,-0.017710178143556632
S011,Po8.,0.07927909157203876,0.0971976247525784,-0.01791853318053964
S011,O1..,0.05729763517033024,0.08344619231169914,-0.0261485571413689
S011,Oz..,0.07302844046254818,0.0863631628294614,-0.013334722366913215
S011,O2..,0.0034378581102198144,0.0742785706844463,-0.07084071257422647
S011,Iz..,0.06438170642775289,0.08167517449734348,-0.01729346806959059
S012,Fc5.,0.019272840920929263,0.08386290238566517,-0.0645900614647359
S012,Fc3.,0.038441504323367015,0.07031982498176893,-0.03187832065840192
S012,Fc1.,0.030107302844046255,0.06542348161266799,-0.03531617876862174
S012,Fcz.,0.0240650067715387,0.057505990207313264,-0.03344098343577456
S012,Fc2.,0.07084071257422649,0.06531930409417648,0.005521408480050005
S012,Fc4.,0.02937806021460569,0.06115220335451609,-0.03177414313991041
S012,Fc6.,0.018751953328471717,0.054484842171059485,-0.03573288884258777
S012,C5..,0.04802583602458589,0.08907177831024066,-0.041045942285654766
S012,C3..,0.05604750494843213,0.08219606208980101,-0.026148557141368885
S012,C1..,0.0567767475778727,0.07584123346181894,-0.01906448588394624
S012,Cz..,0.05781852276278779,0.07021564746327742,-0.012397124700489634
S012,C2..,0.05917283050317741,0.0688613397228878,-0.009688509219710387
S012,C4..,0.05510990728200854,0.0622981560579227,-0.0071882487759141606
S012,C6..,0.05938118554016043,0.051567871653297216,0.007813313886863217
S012,Cp5.,0.05583914991144911,0.07698718616522554,-0.021148036253776432
S012,Cp3.,0.07657047609125951,0.07479945827690385,0.001771017814355666
S012,Cp1.,0.07823731638712365,0.07594541098031045,0.002291905406813205
S012,Cpz.,0.06959058235232837,0.08230023960829252,-0.012709657255964152
S012,Cp2.,0.08605063027398688,0.08115428690488592,0.004896343369100956
S012,Cp4.,0.08313365975622461,0.0754245233878529,0.0077091363683717135
S012,Cp6.,0.08407125742264819,0.07282008542556516,0.011251171997083032
S012,Fp1.,0.12449213459735389,0.06802791957495573,0.056464215022398165
S012,Fpz.,0.11126158974893217,0.06396499635378686,0.04729659339514532
S012,Fp2.,0.11647046567350766,0.06854880716741327,0.047921658506094394
S012,Af7.,0.038649859360350036,0.0971976247525784,-0.05854776539222836
S012,Af3.,0.034378581102198144,0.08730076049588499,-0.05292217939368685
S012,Afz.,0.01604333784769247,0.04969267632045005,-0.03364933847275758
S012,Af4.,0.07250755287009064,0.071153245129701,0.0013543077403896375
S012,Af8.,0.1258464423377435,0.06750703198249818,0.05833941035524533
S012,F7..,0.030315657881029273,0.08834253568080008,-0.05802687779977081
S012,F5..,0.029690592770080217,0.0776122512761746,-0.04792165850609439
S012,F3..,0.00906344410876133,0.06740285446400666,-0.058339410355245334
S012,F1..,0.009584331701218876,0.06479841650171893,-0.05521408480050005
S012,Fz..,0.008021668923846235,0.0567767475778727,-0.048755078654026465
S012,F2..,0.00885508907177831,0.04719241587665382,-0.03833732680487551
S012,F4..,0.008542556516303782,0.0426086050630274,-0.03406604854672361
S012,F6..,0.0087509115532868,0.034274403583706634,-0.025523492030419835
S012,F8..,0.0087509115532868,0.038545681841858526,-0.029794770288571727
S012,Ft7.,0.010730284404625482,0.09063444108761329,-0.07990415668298781
S012,Ft8.,0.016251692884675487,0.03583706636107928,-0.01958537347640379
S012,T7..,0.0645900614647359,0.08938431086571517,-0.024794249400979268
S012,T8..,0.04885925617251797,0.08448796749661423,-0.035628711324096264
S012,T9..,0.05886029794770289,0.09709344723408689,-0.038233149286384
S012,T10.,0.05313053443066986,0.08386290238566517,-0.03073236795499531
S012,Tp7.,0.07625794353578498,0.09375976664235858,-0.017501823106573597
S012,Tp8.,0.05292217939368684,0.07219502031461611,-0.01927284092092927
S012,P7..,0.0841754349411397,0.08396707990415668,0.00020835503698302116
S012,P5..,0.0841754349411397,0.08490467757058028,-0.000729242629440574
S012,P3..,0.07261173038858214,0.08240441712678404,-0.009792686738201897
S012,P1..,0.07417439316595478,0.08375872486717366,-0.009584331701218876
S012,Pz..,0.0863631628294614,0.08677987290342744,-0.0004167100739660423
S012,P2..,0.0841754349411397,0.08157099697885196,0.0026044379622877367
S012,P4..,0.0841754349411397,0.08125846442337743,0.0029169705177622685
S012,P6..,0.08396707990415668,0.0853213876445463,-0.0013543077403896236
S012,P8..,0.08782164808834253,0.08875924575476613,-0.0009375976664235952
S012,Po7.,0.09542660693822273,0.09157203875403688,0.00385456818418585
S012,Po3.,0.09146786123554537,0.08657151786644442,0.004896343369100956
S012,Poz.,0.08677987290342744,0.08448796749661423,0.002291905406813205
S012,Po4.,0.08563392020002084,0.08167517449734348,0.00395874570267736
S012,Po8.,0.08980102093968122,0.0916762162725284,-0.0018751953328471765
S012,O1..,0.09459318679029066,0.08407125742264819,0.010521929367642471
S012,Oz..,0.08605063027398688,0.08761329305135952,-0.0015626627773726448
S012,O2..,0.08834253568080008,0.08948848838420669,-0.0011459527034066025
S012,Iz..,0.08750911553286801,0.0974059797895614,-0.009896864256693394
S013,Fc5.,0.029273882696114178,0.12095009896864256,-0.09167621627252838
S013,Fc3.,0.05313053443066986,0.11167829982289822,-0.058547765392228356
S013,Fc1.,0.07177831024065007,0.10782373163871237,-0.0360454213980623
S013,Fcz.,0.09490571934576518,0.10792790915720388,-0.013022189811438697
S013,Fc2.,0.05740181268882175,0.11001145952703406,-0.05260964683821231
S013,Fc4.,0.02864881758516512,0.10980310449005105,-0.08115428690488594
S013,Fc6.,0.06094384831753308,0.10407334097301803,-0.04312949265548495
S013,C5..,0.07594541098031045,0.10751119908323784,-0.031565788102927386
S013,C3..,0.08021668923846234,0.103864985936035,-0.023648296697572666
S013,C1..,0.08459214501510574,0.09792686738201896,-0.013334722366913215
S013,Cz..,0.098343577455985,0.11167829982289822,-0.013334722366913215
S013,C2..,0.08490467757058028,0.11230336493384728,-0.027398687363267005
S013,C4..,0.08396707990415668,0.10792790915720388,-0.023960829253047197
S013,C6..,0.10303156578810292,0.10303156578810292,0.0
S013,Cp5.,0.09730180227106991,0.11126158974893217,-0.013959787477862265
S013,Cp3.,0.10230232315866236,0.10532347119491614,-0.003021148036253779
S013,Cp1.,0.09573913949369726,0.11407438274820293,-0.018335243254505668
S013,Cpz.,0.10428169601000105,0.11188665485988124,-0.007604958849880189
S013,Cp2.,0.10761537660172935,0.11001145952703406,-0.0023960829253047156
S013,Cp4.,0.11074070215647464,0.10876132930513595,0.001979372851338687
S013,Cp6.,0.1027190332326284,0.10251067819564538,0.00020835503698302116
S013,Fp1.,0.06865298468590478,0.10740702156474632,-0.03875403687884155
S013,Fpz.,0.07469528075841234,0.10824044171267841,-0.03354516095426607
S013,Fp2.,0.0862589853109699,0.10876132930513595,-0.02250234399416605
S013,Af7.,0.06636107927909157,0.10657360141681425,-0.04021252213772268
S013,Af3.,0.0612563808730076,0.10584435878737368,-0.04458797791436608
S013,Afz.,0.019481195957912284,0.10938639441608501,-0.08990519845817273
S013,Af4.,0.0655276591311595,0.09761433482654443,-0.032086675695384925
S013,Af8.,0.1104281696010001,0.10438587352849255,0.006042296072507558
S013,F7..,0.02239816647567455,0.09698926971559538,-0.07459110323992083
S013,F5..,0.01125117199708303,0.10615689134284821,-0.09490571934576518
S013,F3..,0.01791853318053964,0.10553182623189916,-0.08761329305135952
S013,F1..,0.021564746327742475,0.10980310449005105,-0.08823835816230857
S013,Fz..,0.01989790603187832,0.1049067611209501,-0.08500885508907177
S013,F2..,0.016876757995624544,0.10438587352849255,-0.087509115532868
S013,F4..,0.011355349515574539,0.1114699447859152,-0.10011459527034065
S013,F6..,0.05781852276278779,0.11219918741535577,-0.05438066465256798
S013,F8..,0.05219293676424627,0.10949057193457652,-0.05729763517033025
S013,Ft7.,0.030419835399520784,0.10240650067715387,-0.07198666527763309
S013,Ft8.,0.06281904365038025,0.10011459527034067,-0.03729555161996041
S013,T7..,0.10449005104698406,0.11667882071049068,-0.012188769663506627
S013,T8..,0.10938639441608501,0.10886550682362746,0.0005208875924575529
S013,T9..,0.11959579122825294,0.06750703198249818,0.05208875924575476
S013,T10.,0.10428169601000105,0.07625794353578498,0.028023752474216068
S013,Tp7.,0.10761537660172935,0.11594957808105011,-0.008334201479320763
S013,Tp8.,0.11657464319199917,0.11438691530367746,0.0021877278883217083
S013,P7..,0.09865611001145953,0.09990624023335765,-0.001250130221898113
S013,P5..,0.1005313053443067,0.09771851234503594,0.002812792999270758
S013,P3..,0.10188561308469632,0.08261277216376706,0.019272840920929263
S013,P1..,0.1060527138243567,0.11397020522971142,-0.00791749140535472
S013,Pz..,0.10365663089905199,0.11438691530367746,-0.010730284404625479
S013,P2..,0.10740702156474632,0.11615793311803313,-0.008750911553286805
S013,P4..,0.09000937597666424,0.11761641837691426,-0.027607042400250026
S013,P6..,0.07084071257422649,0.10209396812167934,-0.031253255547452855
S013,P8..,0.07729971872070007,0.12084592145015106,-0.04354620272945099
S013,Po7.,0.1016772580477133,0.10355245338056047,-0.0018751953328471765
S013,Po3.,0.10480258360245859,0.10574018126888217,-0.0009375976664235813
S013,Poz.,0.10626106886133972,0.11105323471194917,-0.004792165850609445
S013,Po4.,0.10126054797374727,0.09230128138347744,0.008959266590269827
S013,Po8.,0.0918845713095114,0.08250859464527555,0.009375976664235855
S013,O1..,0.07771642879466611,0.0809459318679029,-0.0032295030732367863
S013,Oz..,0.081987707052818,0.10219814564017085,-0.020210438587352844
S013,O2..,0.10563600375039067,0.0853213876445463,0.02031461610584437
S013,Iz..,0.026044379622877385,0.04604646317324721,-0.020002083550369826
S014,Fc5.,0.04458797791436608,0.0974059797895614,-0.05281800187519533
S014,Fc3.,0.04875507865402646,0.09584331701218878,-0.04708823835816232
S014,Fc1.,0.05302635691217835,0.09844775497447651,-0.04542139806229816
S014,Fcz.,0.050734451505365145,0.0951140743827482,-0.044379622877383056
S014,Fc2.,0.05802687779977081,0.0830294822377331,-0.02500260443796229
S014,Fc4.,0.03417022606521513,0.0895926659026982,-0.055422439837483066
S014,Fc6.,0.015001562662777372,0.1190749036357954,-0.10407334097301803
S014,C5..,0.09698926971559538,0.11751224085842275,-0.020522971142827376
S014,C3..,0.08084175434941139,0.1027190332326284,-0.021877278883217013
S014,C1..,0.08928013334722366,0.08230023960829252,0.006979893738931139
S014,Cz..,0.10115637045525576,0.08375872486717366,0.0173976455880821
S014,C2..,0.07854984894259819,0.0896968434211897,-0.011146994478591521
S014,C4..,0.025940202104385874,0.10219814564017085,-0.07625794353578498
S014,C6..,0.10907386186061048,0.12438795707886238,-0.015314095218251902
S014,Cp5.,0.12053338889467653,0.09751015730805292,0.023023231586623616
S014,Cp3.,0.034378581102198144,0.10355245338056047,-0.06917387227836233
S014,Cp1.,0.10917803937910199,0.09980206271486614,0.009375976664235855
S014,Cpz.,0.10178143556620481,0.08688405042191895,0.01489738514428586
S014,Cp2.,0.09323887904990102,0.07844567142410667,0.01479320762579435
S014,Cp4.,0.08552974268152932,0.09636420460464631,-0.01083446192311699
S014,Cp6.,0.10449005104698406,0.11949161370976143,-0.01500156266277737
S014,Fp1.,0.015730805292217938,0.06844462964892176,-0.05271382435670382
S014,Fpz.,0.020627148661318886,0.06802791957495573,-0.04740077091363684
S014,Fp2.,0.018751953328471717,0.07917491405354725,-0.06042296072507553
S014,Af7.,0.032399208250859464,0.09438483175330764,-0.06198562350244818
S014,Af3.,0.011876237108032086,0.0688613397228878,-0.05698510261485571
S014,Afz.,0.004792165850609438,0.07261173038858214,-0.06781956453797269
S014,Af4.,0.005104698406083967,0.0918845713095114,-0.08677987290342744
S014,Af8.,0.006146473590999063,0.09209292634649442,-0.08594645275549535
S014,F7..,0.009792686738201896,0.06042296072507553,-0.050630273986873635
S014,F5..,0.03562871132409626,0.013647254922387749,0.02198145640170851
S014,F3..,0.0058339410355245334,0.09792686738201896,-0.09209292634649442
S014,F1..,0.005313053443066986,0.09271799145744349,-0.0874049380143765
S014,Fz..,0.008021668923846235,0.09355141160537556,-0.08552974268152932
S014,F2..,0.008542556516303782,0.07625794353578498,-0.0677153870194812
S014,F4..,0.005729763517033025,0.08761329305135952,-0.0818835295343265
S014,F6..,0.004792165850609438,0.09209292634649442,-0.08730076049588498
S014,F8..,0.004792165850609438,0.09375976664235858,-0.08896760079174915
S014,Ft7.,0.028440462548182104,0.07490363579539536,-0.04646317324721325
S014,Ft8.,0.03125325554745286,0.13626419418689448,-0.10501093863944161
S014,T7..,0.05406813209709345,0.07969580164600479,-0.02562766954891134
S014,T8..,0.08240441712678404,0.08469632253359725,-0.002291905406813219
S014,T9..,0.06000625065110949,0.08021668923846234,-0.02021043858735285
S014,T10.,0.05594332742994062,0.14355662048130013,-0.08761329305135951
S014,Tp7.,0.13668090426086052,0.09490571934576518,0.04177518491509534
S014,Tp8.,0.11719970830294822,0.07219502031461611,0.04500468798833211
S014,P7..,0.0994895301593916,0.07177831024065007,0.027711219918741536
S014,P5..,0.10532347119491614,0.10251067819564538,0.002812792999270758
S014,P3..,0.08771747056985102,0.0939681216793416,-0.006250651109490579
S014,P1..,0.1136576726742369,0.09438483175330764,0.019272840920929263
S014,Pz..,0.10709448900927179,0.08657151786644442,0.020522971142827376
S014,P2..,0.08375872486717366,0.08792582560683404,-0.0041671007396603815
S014,P4..,0.10188561308469632,0.08011251171997083,0.02177310136472549
S014,P6..,0.10240650067715387,0.09053026356912178,0.011876237108032095
S014,P8..,0.0579227002812793,0.10146890301073029,-0.04354620272945099
S014,Po7.,0.11959579122825294,0.10084383789978123,0.01875195332847171
S014,Po3.,0.11876237108032087,0.10146890301073029,0.017293468069590576
S014,Poz.,0.09688509219710387,0.09042608605063028,0.0064590061464735865
S014,Po4.,0.10521929367642463,0.08782164808834253,0.0173976455880821
S014,Po8.,0.10001041775184916,0.08719658297739348,0.012813834774455676
S014,O1..,0.09969788519637462,0.11417856026669444,-0.014480675070319818
S014,Oz..,0.1135534951557454,0.08584227523700386,0.027711219918741536
S014,O2..,0.10761537660172935,0.10209396812167934,0.005521408480050005
S014,Iz..,0.07657047609125951,0.06469423898322742,0.011876237108032095
S015,Fc5.,0.09709344723408689,0.1324096260027086,-0.035316178768621725
S015,Fc3.,0.08834253568080008,0.12188769663506616,-0.03354516095426607
S015,Fc1.,0.08511303260756328,0.11407438274820293,-0.02896135014063965
S015,Fcz.,0.10844879674966142,0.11094905719345766,-0.00250026044379624
S015,Fc2.,0.12355453693093031,0.11334514011876237,0.01020939681216794
S015,Fc4.,0.10344827586206896,0.12115845400562558,-0.017710178143556618
S015,Fc6.,0.08480050005208876,0.13261798103969163,-0.04781748098760287
S015,C5..,0.12959683300343786,0.1148036253776435,0.01479320762579435
S015,C3..,0.11709553078445671,0.11709553078445671,0.0
S015,C1..,0.11542869048859256,0.11709553078445671,-0.0016668402958641554
S015,Cz..,0.12084592145015106,0.11063652463798312,0.01020939681216794
S015,C2..,0.12074174393165955,0.0918845713095114,0.028857172622148153
S015,C4..,0.11011563704552557,0.10313574330659443,0.006979893738931139
S015,C6..,0.07917491405354725,0.1364725492238775,-0.05729763517033025
S015,Cp5.,0.09407229919783311,0.09448900927179915,-0.0004167100739660423
S015,Cp3.,0.12209605167204918,0.11678299822898218,0.005313053443066998
S015,Cp1.,0.10844879674966142,0.11501198041462653,-0.006563183664965111
S015,Cpz.,0.11969996874674445,0.1069903114907803,0.012709657255964152
S015,Cp2.,0.12522137722679447,0.1092822168975935,0.015939160329200966
S015,Cp4.,0.12157516407959162,0.11928325867277842,0.002291905406813205
S015,Cp6.,0.12053338889467653,0.12407542452338785,-0.003542035628711318
S015,Fp1.,0.025523492030419835,0.12511719970830296,-0.09959370767788311
S015,Fpz.,0.011980414626523597,0.11678299822898218,-0.10480258360245859
S015,Fp2.,0.007500781331388686,0.10636524637983123,-0.09886446504844254
S015,Af7.,0.01604333784769247,0.11949161370976143,-0.10344827586206895
S015,Af3.,0.016251692884675487,0.11688717574747369,-0.1006354828627982
S015,Afz.,0.018647775809980206,0.0916762162725284,-0.0730284404625482
S015,Af4.,0.009271799145744348,0.10105219293676425,-0.0917803937910199
S015,Af8.,0.00906344410876133,0.11647046567350766,-0.10740702156474632
S015,F7..,0.02906552765913116,0.10844879674966142,-0.07938326909053026
S015,F5..,0.02656526721533493,0.12761746015209918,-0.10105219293676425
S015,F3..,0.027294509844775498,0.09761433482654443,-0.07031982498176893
S015,F1..,0.05563079487446609,0.11636628815501615,-0.060735493280550064
S015,Fz..,0.052713824356703826,0.12167934159808313,-0.06896551724137931
S015,F2..,0.06688196687154913,0.1213668090426086,-0.05448484217105948
S015,F4..,0.05490155224502553,0.11626211063652464,-0.06136055839149911
S015,F6..,0.11834566100635482,0.11709553078445671,0.001250130221898113
S015,F8..,0.06729867694551515,0.11647046567350766,-0.04917178872799251
S015,Ft7.,0.13282633607667466,0.1125117199708303,0.020314616105844355
S015,Ft8.,0.09688509219710387,0.1408480050005209,-0.04396291280341702
S015,T7..,0.1300135430774039,0.10438587352849255,0.025627669548911353
S015,T8..,0.14168142514845297,0.14397333055526618,-0.002291905406813205
S015,T9..,0.08907177831024066,0.04906761120950099,0.04000416710073967
S015,T10.,0.14032711740806333,0.12615897489321803,0.0141681425148453
S015,Tp7.,0.09969788519637462,0.07354932805500573,0.02614855714136889
S015,Tp8.,0.12720075007813314,0.12865923533701426,-0.0014584852588811203
S015,P7..,0.058547765392228356,0.07584123346181894,-0.017293468069590583
S015,P5..,0.10803208667569539,0.09334305656839254,0.014689030107302853
S015,P3..,0.11084487967496615,0.10938639441608501,0.0014584852588811342
S015,P1..,0.10282321075111991,0.11001145952703406,-0.007188248775914147
S015,Pz..,0.12365871444942181,0.11344931763725388,0.010209396812167926
S015,P2..,0.1245963121158454,0.11688717574747369,0.0077091363683717135
S015,P4..,0.1224085842275237,0.10782373163871237,0.014584852588811328
S015,P6..,0.12615897489321803,0.06917387227836233,0.056985102614855704
S015,P8..,0.12032503385769351,0.1037608084175435,0.016564225440150016
S015,Po7.,0.10292738826961141,0.09876028752995103,0.0041671007396603815
S015,Po3.,0.10771955412022086,0.10032295030732367,0.007396603812897182
S015,Poz.,0.11782477341389729,0.11303260756328784,0.004792165850609445
S015,Po4.,0.12303364933847276,0.07156995520366705,0.05146369413480571
S015,Po8.,0.12428377956037087,0.1027190332326284,0.021564746327742468
S015,O1..,0.1027190332326284,0.09063444108761329,0.012084592145015116
S015,Oz..,0.0993853526409001,0.09115532868007084,0.008230023960829252
S015,O2..,0.10636524637983123,0.10824044171267841,-0.0018751953328471765
S015,Iz..,0.0557349723929576,0.06875716220439629,-0.01302218981143869
S016,Fc5.,0.06313157620585477,0.08615480779247839,-0.023023231586623616
S016,Fc3.,0.04323367017397645,0.08823835816230857,-0.04500468798833212
S016,Fc1.,0.04302531513699344,0.08948848838420669,-0.046463173247213246
S016,Fcz.,0.032607563287842485,0.09198874882800291,-0.059381185540160426
S016,Fc2.,0.03562871132409626,0.08021668923846234,-0.044587977914366084
S016,Fc4.,0.040420877174705695,0.08865506823627461,-0.04823419106156892
S016,Fc6.,0.020627148661318886,0.07792478383164914,-0.05729763517033025
S016,C5..,0.10323992082508594,0.09323887904990102,0.010001041775184918
S016,C3..,0.06427752890926137,0.08219606208980101,-0.01791853318053964
S016,C1..,0.07250755287009064,0.09500989686425669,-0.02250234399416605
S016,Cz..,0.061777268465465156,0.09334305656839254,-0.03156578810292738
S016,C2..,0.05886029794770289,0.08011251171997083,-0.021252213772267943
S016,C4..,0.04323367017397645,0.09375976664235858,-0.050526096468382124
S016,C6..,0.04979685383894156,0.04979685383894156,0.0
S016,Cp5.,0.09553078445671424,0.08771747056985102,0.007813313886863224
S016,Cp3.,0.09063444108761329,0.0863631628294614,0.004271278258151892
S016,Cp1.,0.06896551724137931,0.08667569538493593,-0.017710178143556618
S016,Cpz.,0.08167517449734348,0.08980102093968122,-0.008125846442337742
S016,Cp2.,0.07146577768517554,0.07177831024065007,-0.00031253255547453174
S016,Cp4.,0.06719449942702364,0.06917387227836233,-0.001979372851338687
S016,Cp6.,0.055526617355974583,0.021252213772267943,0.03427440358370664
S016,Fp1.,0.04427544535889155,0.06584019168663402,-0.021564746327742468
S016,Fpz.,0.04198353995207834,0.05875612042921138,-0.016772580477133037
S016,Fp2.,0.04635899572872174,0.05604750494843213,-0.009688509219710387
S016,Af7.,0.05490155224502553,0.047400770913636835,0.007500781331388692
S016,Af3.,0.037503906656943434,0.06271486613188874,-0.02521095947494531
S016,Afz.,0.021148036253776436,0.07907073653505574,-0.0579227002812793
S016,Af4.,0.04667152828419627,0.05886029794770289,-0.01218876966350662
S016,Af8.,0.08052922179393687,0.0513595166163142,0.02916970517762267
S016,F7..,0.04396291280341702,0.05188040420877175,-0.007917491405354728
S016,F5..,0.04885925617251797,0.06427752890926137,-0.015418272736743406
S016,F3..,0.032399208250859464,0.07459110323992083,-0.04219189498906136
S016,F1..,0.020835503698301908,0.07521616835086989,-0.05438066465256798
S016,Fz..,0.02260652151265757,0.08657151786644442,-0.06396499635378684
S016,F2..,0.0196895509948953,0.07677883112824252,-0.057089280133347214
S016,F4..,0.020731326179810397,0.07375768309198875,-0.05302635691217836
S016,F6..,0.04010834461923117,0.07021564746327742,-0.030107302844046252
S016,F8..,0.019377018439420773,0.04667152828419627,-0.027294509844775494
S016,Ft7.,0.10834461923116992,0.0776122512761746,0.030732367954995315
S016,Ft8.,0.01593916032920096,0.047400770913636835,-0.031461610584435876
S016,T7..,0.10949057193457652,0.07667465360975101,0.03281591832482551
S016,T8..,0.13928534222314826,0.10824044171267841,0.031044900510469847
S016,T9..,0.11292843004479633,0.07688300864673403,0.0360454213980623
S016,T10.,0.08063339931242838,0.03625377643504532,0.04437962287738306
S016,Tp7.,0.09261381393895197,0.08803000312532555,0.004583810813626424
S016,Tp8.,0.14386915303677467,0.08573809771851235,0.05813105531826232
S016,P7..,0.0884467131992916,0.09709344723408689,-0.008646734034795295
S016,P5..,0.07594541098031045,0.08115428690488592,-0.0052088759245754734
S016,P3..,0.07969580164600479,0.08282112720075008,-0.0031253255547452896
S016,P1..,0.07886238149807272,0.08209188457130952,-0.0032295030732368
S016,Pz..,0.08000833420147932,0.08334201479320763,-0.0033336805917283108
S016,P2..,0.07813313886863214,0.07886238149807272,-0.000729242629440574
S016,P4..,0.06948640483383686,0.09813522241900198,-0.028648817585165118
S016,P6..,0.06396499635378686,0.09240545890196895,-0.028440462548182097
S016,P8..,0.1016772580477133,0.11105323471194917,-0.009375976664235869
S016,Po7.,0.1006354828627982,0.10126054797374727,-0.0006250651109490635
S016,Po3.,0.07073653505573498,0.08907177831024066,-0.01833524325450568
S016,Poz.,0.09896864256693405,0.0971976247525784,0.001771017814355652
S016,Po4.,0.08688405042191895,0.10136472549223878,-0.014480675070319832
S016,Po8.,0.1006354828627982,0.10240650067715387,-0.001771017814355666
S016,O1..,0.07156995520366705,0.1005313053443067,-0.02896135014063965
S016,Oz..,0.08427961245963121,0.10115637045525576,-0.016876757995624547
S016,O2..,0.08313365975622461,0.09230128138347744,-0.009167621627252834
S016,Iz..,0.09011355349515575,0.09896864256693405,-0.008855089071778302
S017,Fc5.,0.13595166163141995,0.14470257318470675,-0.008750911553286805
S017,Fc3.,0.11553286800708407,0.1289717678924888,-0.013438899885404726
S017,Fc1.,0.07813313886863214,0.09303052401291802,-0.014897385144285874
S017,Fcz.,0.08386290238566517,0.09313470153140953,-0.009271799145744358
S017,Fc2.,0.08584227523700386,0.0918845713095114,-0.006042296072507544
S017,Fc4.,0.10001041775184916,0.08438378997812272,0.015626627773726434
S017,Fc6.,0.10678195645379727,0.11647046567350766,-0.009688509219710387
S017,C5..,0.058443587873736845,0.1268882175226586,-0.06844462964892176
S017,C3..,0.06396499635378686,0.12709657255964163,-0.06313157620585477
S017,C1..,0.09678091467861236,0.10990728200854255,-0.013126367329930194
S017,Cz..,0.08011251171997083,0.1049067611209501,-0.024794249400979268
S017,C2..,0.07188248775914158,0.1016772580477133,-0.02979477028857172
S017,C4..,0.09782268986352745,0.10594853630586519,-0.008125846442337742
S017,C6..,0.031565788102927386,0.12167934159808313,-0.09011355349515575
S017,Cp5.,0.09438483175330764,0.12636732993020106,-0.031982498176893415
S017,Cp3.,0.08146681946036045,0.11782477341389729,-0.03635795395353683
S017,Cp1.,0.08146681946036045,0.10001041775184916,-0.018543598291488703
S017,Cpz.,0.08230023960829252,0.10615689134284821,-0.023856651734555687
S017,Cp2.,0.08355036983019065,0.10751119908323784,-0.023960829253047183
S017,Cp4.,0.04792165850609439,0.07354932805500573,-0.025627669548911346
S017,Cp6.,0.10230232315866236,0.10678195645379727,-0.004479633295134913
S017,Fp1.,0.05698510261485571,0.05375559954161892,0.0032295030732367933
S017,Fpz.,0.03510782373163871,0.045317220543806644,-0.010209396812167933
S017,Fp2.,0.039691634545265135,0.052401291801229294,-0.012709657255964159
S017,Af7.,0.081987707052818,0.05385977706011043,0.02812792999270758
S017,Af3.,0.10553182623189916,0.0818835295343265,0.023648296697572666
S017,Afz.,0.0393791019897906,0.045525575580789665,-0.006146473590999062
S017,Af4.,0.055526617355974583,0.03219085321387644,0.02333576414209814
S017,Af8.,0.03771226169392645,0.059693718095634965,-0.021981456401708517
S017,F7..,0.10198979060318783,0.08334201479320763,0.0186477758099802
S017,F5..,0.131263673299302,0.07959162412751328,0.05167204917178872
S017,F3..,0.06959058235232837,0.05292217939368684,0.016668402958641533
S017,F1..,0.08438378997812272,0.06646525679758308,0.01791853318053964
S017,Fz..,0.08875924575476613,0.06792374205646422,0.020835503698301908
S017,F2..,0.10094801541827274,0.05396395457860194,0.0469840608396708
S017,F4..,0.09928117512240858,0.054380664652567974,0.04490051046984061
S017,F6..,0.11230336493384728,0.048650901135534955,0.06365246379831233
S017,F8..,0.0807375768309199,0.06198562350244817,0.018751953328471724
S017,Ft7.,0.12792999270757371,0.10594853630586519,0.021981456401708524
S017,Ft8.,0.07448692572142931,0.12428377956037087,-0.04979685383894156
S017,T7..,0.07782060631315763,0.11876237108032087,-0.04094176476716324
S017,T8..,0.054693197208042506,0.09386394416085009,-0.03917074695280758
S017,T9..,0.07782060631315763,0.09886446504844254,-0.021043858735284915
S017,T10.,0.04229607250755287,0.05229711428273778,-0.010001041775184911
S017,Tp7.,0.07063235753724346,0.10688613397228879,-0.03625377643504532
S017,Tp8.,0.10574018126888217,0.09469736430878216,0.01104281696010001
S017,P7..,0.08719658297739348,0.10469840608396708,-0.017501823106573597
S017,P5..,0.07188248775914158,0.10303156578810292,-0.031149078028961344
S017,P3..,0.04677570580268778,0.11834566100635482,-0.07156995520366705
S017,P1..,0.07604958849880196,0.11021981456401708,-0.03417022606521512
S017,Pz..,0.07146577768517554,0.11324096260027086,-0.041775184915095326
S017,P2..,0.076466298572768,0.1049067611209501,-0.028440462548182097
S017,P4..,0.06688196687154913,0.1037608084175435,-0.03687884154599437
S017,P6..,0.05490155224502553,0.09980206271486614,-0.04490051046984061
S017,P8..,0.08334201479320763,0.10407334097301803,-0.020731326179810397
S017,Po7.,0.08542556516303781,0.11824148348786331,-0.0328159183248255
S017,Po3.,0.08105010938639441,0.1060527138243567,-0.02500260443796229
S017,Poz.,0.0775080737576831,0.10751119908323784,-0.03000312532555474
S017,Po4.,0.052609646838212315,0.10969892697155954,-0.05708928013334723
S017,Po8.,0.02646108969684342,0.11126158974893217,-0.08480050005208875
S017,O1..,0.09011355349515575,0.11636628815501615,-0.026252734659860402
S017,Oz..,0.08542556516303781,0.11219918741535577,-0.026773622252317955
S017,O2..,0.092822168975935,0.10553182623189916,-0.012709657255964166
S017,Iz..,0.047504948432128345,0.11959579122825294,-0.0720908427961246
S018,Fc5.,0.036357953953536824,0.08980102093968122,-0.05344306698614439
S018,Fc3.,0.0350036462131472,0.09365558912386707,-0.058651942910719866
S018,Fc1.,0.03677466402750287,0.09730180227106991,-0.06052713824356704
S018,Fcz.,0.038337326804875504,0.0994895301593916,-0.0611522033545161
S018,Fc2.,0.038233149286384,0.10032295030732367,-0.062089801020939674
S018,Fc4.,0.038441504323367015,0.10073966038128972,-0.0622981560579227
S018,Fc6.,0.04125429732263777,0.10907386186061048,-0.0678195645379727
S018,C5..,0.04031669965621419,0.09917699760391707,-0.05886029794770288
S018,C3..,0.03583706636107928,0.09969788519637462,-0.06386081883529535
S018,C1..,0.03521200125013022,0.09573913949369726,-0.06052713824356704
S018,Cz..,0.04125429732263777,0.09959370767788311,-0.05833941035524534
S018,C2..,0.04187936243358683,0.09959370767788311,-0.057714345244296285
S018,C4..,0.0491717887279925,0.10907386186061048,-0.05990207313261798
S018,C6..,0.06406917387227837,0.11115741223044068,-0.04708823835816231
S018,Cp5.,0.041671007396603815,0.09636420460464631,-0.0546931972080425
S018,Cp3.,0.037608084175434944,0.09375976664235858,-0.05615168246692363
S018,Cp1.,0.04229607250755287,0.09896864256693405,-0.05667257005938118
S018,Cpz.,0.05396395457860194,0.10188561308469632,-0.04792165850609438
S018,Cp2.,0.054276487134076463,0.09980206271486614,-0.04552557558078967
S018,Cp4.,0.05729763517033024,0.10824044171267841,-0.05094280654234817
S018,Cp6.,0.06834045213043026,0.1006354828627982,-0.032295030732367946
S018,Fp1.,0.047504948432128345,0.07407021564746327,-0.026565267215334927
S018,Fpz.,0.04292113761850193,0.08677987290342744,-0.04385873528492551
S018,Fp2.,0.04385873528492551,0.09584331701218878,-0.051984581727263265
S018,Af7.,0.049484321283467025,0.06948640483383686,-0.020002083550369837
S018,Af3.,0.04469215543285759,0.07834149390561516,-0.03364933847275758
S018,Afz.,0.0426086050630274,0.09375976664235858,-0.05115116157933118
S018,Af4.,0.04500468798833212,0.09573913949369726,-0.050734451505365145
S018,Af8.,0.04010834461923117,0.1005313053443067,-0.060422960725075525
S018,F7..,0.047609125950619856,0.06959058235232837,-0.021981456401708517
S018,F5..,0.03885821439733306,0.06948640483383686,-0.030628190436503805
S018,F3..,0.03917074695280758,0.08167517449734348,-0.04250442754453589
S018,F1..,0.03396187102823211,0.0971976247525784,-0.06323575372434628
S018,Fz..,0.04083758724867174,0.09688509219710387,-0.05604750494843213
S018,F2..,0.03885821439733306,0.09917699760391707,-0.060318783206584015
S018,F4..,0.0393791019897906,0.09803104490051047,-0.058651942910719866
S018,F6..,0.04208771747056985,0.10865715178664444,-0.0665694343160746
S018,F8..,0.052609646838212315,0.10532347119491614,-0.052713824356703826
S018,Ft7.,0.03989998958224815,0.08511303260756328,-0.04521304302531513
S018,Ft8.,0.050526096468382124,0.09084279612459631,-0.040316699656214185
S018,T7..,0.03177414313991041,0.10115637045525576,-0.06938222731534535
S018,T8..,0.05302635691217835,0.09428065423481613,-0.04125429732263778
S018,T9..,0.029273882696114178,0.0644858839462444,-0.035212001250130215
S018,T10.,0.04187936243358683,0.10251067819564538,-0.06063131576205855
S018,Tp7.,0.05625585998541515,0.10146890301073029,-0.04521304302531514
S018,Tp8.,0.0754245233878529,0.10636524637983123,-0.030940722991978337
S018,P7..,0.05292217939368684,0.09157203875403688,-0.03864985936035004
S018,P5..,0.054797374726534016,0.09584331701218878,-0.04104594228565476
S018,P3..,0.05167204917178873,0.09917699760391707,-0.047504948432128345
S018,P1..,0.05302635691217835,0.1006354828627982,-0.047609125950619856
S018,Pz..,0.06719449942702364,0.10042712782581519,-0.03323262839879154
S018,P2..,0.0579227002812793,0.10042712782581519,-0.042504427544535886
S018,P4..,0.05385977706011043,0.10230232315866236,-0.048442546098551933
S018,P6..,0.06302739868736326,0.10574018126888217,-0.04271278258151891
S018,P8..,0.06636107927909157,0.1037608084175435,-0.03739972913845192
S018,Po7.,0.065631836649651,0.09782268986352745,-0.03219085321387645
S018,Po3.,0.061568913428482135,0.09428065423481613,-0.032711740806333996
S018,Poz.,0.061673090946973645,0.09990624023335765,-0.038233149286384
S018,Po4.,0.057505990207313264,0.10178143556620481,-0.044275445358891545
S018,Po8.,0.059485363058651944,0.07334097301802271,-0.013855609959370768
S018,O1..,0.06521512657568497,0.1049067611209501,-0.03969163454526513
S018,Oz..,0.06302739868736326,0.10021877278883216,-0.0371913741014689
S018,O2..,0.060110428169601,0.09584331701218878,-0.035732888842587775
S018,Iz..,0.06427752890926137,0.10240650067715387,-0.0381289717678925
S019,Fc5.,0.08146681946036045,0.11084487967496615,-0.029378060214605692
S019,Fc3.,0.020835503698301908,0.09375976664235858,-0.07292426294405667
S019,Fc1.,0.007292426294405668,0.09230128138347744,-0.08500885508907177
S019,Fcz.,0.009167621627252839,0.0884467131992916,-0.07927909157203876
S019,Fc2.,0.01771017814355662,0.09917699760391707,-0.08146681946036045
S019,Fc4.,0.1049067611209501,0.1006354828627982,0.004271278258151892
S019,Fc6.,0.11021981456401708,0.1104281696010001,-0.00020835503698302116
S019,C5..,0.03708719658297739,0.11115741223044068,-0.07407021564746329
S019,C3..,0.031565788102927386,0.10709448900927179,-0.0755287009063444
S019,C1..,0.027190332326283987,0.10042712782581519,-0.0732367954995312
S019,Cz..,0.025419314511928325,0.10251067819564538,-0.07709136368371705
S019,C2..,0.021252213772267943,0.09698926971559538,-0.07573705594332744
S019,C4..,0.03229503073236795,0.11501198041462653,-0.08271694968225857
S019,C6..,0.027502864881758515,0.11657464319199917,-0.08907177831024066
S019,Cp5.,0.0807375768309199,0.11178247734138973,-0.031044900510469833
S019,Cp3.,0.0491717887279925,0.10678195645379727,-0.057610167725804774
S019,Cp1.,0.043650380247942495,0.10198979060318783,-0.058339410355245334
S019,Cpz.,0.0807375768309199,0.10636524637983123,-0.02562766954891134
S019,Cp2.,0.050734451505365145,0.10553182623189916,-0.054797374726534016
S019,Cp4.,0.06750703198249818,0.10594853630586519,-0.038441504323367015
S019,Cp6.,0.11011563704552557,0.11678299822898218,-0.006667361183456608
S019,Fp1.,0.01145952703406605,0.11719970830294822,-0.10574018126888217
S019,Fpz.,0.01562662777372643,0.11032399208250859,-0.09469736430878216
S019,Fp2.,0.06636107927909157,0.08917595582873215,-0.02281487654964058
S019,Af7.,0.03198249817689343,0.11980414626523596,-0.08782164808834253
S019,Af3.,0.08896760079174915,0.11021981456401708,-0.021252213772267936
S019,Afz.,0.008125846442337744,0.10282321075111991,-0.09469736430878217
S019,Af4.,0.009792686738201896,0.10136472549223878,-0.09157203875403688
S019,Af8.,0.05313053443066986,0.10876132930513595,-0.05563079487446609
S019,F7..,0.011563704552557558,0.10021877278883216,-0.0886550682362746
S019,F5..,0.05625585998541515,0.10521929367642463,-0.04896343369100948
S019,F3..,0.048442546098551933,0.10917803937910199,-0.06073549328055006
S019,F1..,0.008542556516303782,0.10042712782581519,-0.0918845713095114
S019,Fz..,0.008230023960829252,0.09782268986352745,-0.0895926659026982
S019,F2..,0.00895926659026982,0.10896968434211897,-0.10001041775184916
S019,F4..,0.12803417022606522,0.11084487967496615,0.01718929055109908
S019,F6..,0.10751119908323784,0.11938743619126993,-0.011876237108032095
S019,F8..,0.010313574330659443,0.08865506823627461,-0.07834149390561518
S019,Ft7.,0.04010834461923117,0.1060527138243567,-0.06594436920512553
S019,Ft8.,0.018751953328471717,0.11667882071049068,-0.09792686738201897
S019,T7..,0.11719970830294822,0.09678091467861236,0.020418793624335865
S019,T8..,0.065631836649651,0.13199291592874257,-0.06636107927909157
S019,T9..,0.0929263464944265,0.10792790915720388,-0.01500156266277737
S019,T10.,0.04604646317324721,0.10084383789978123,-0.054797374726534016
S019,Tp7.,0.08177935201583499,0.11532451297010106,-0.03354516095426607
S019,Tp8.,0.06729867694551515,0.1313678508177935,-0.06406917387227835
S019,P7..,0.1148036253776435,0.10011459527034067,0.014689030107302839
S019,P5..,0.0874049380143765,0.1071986665277633,-0.019793728513386802
S019,P3..,0.0634441087613293,0.10521929367642463,-0.041775184915095326
S019,P1..,0.054693197208042506,0.09876028752995103,-0.044067090321908524
S019,Pz..,0.058443587873736845,0.09917699760391707,-0.04073340973018023
S019,P2..,0.05385977706011043,0.10501093863944161,-0.05115116157933118
S019,P4..,0.0634441087613293,0.10438587352849255,-0.04094176476716324
S019,P6..,0.0917803937910199,0.12063756641316804,-0.02885717262214814
S019,P8..,0.09209292634649442,0.12011667882071049,-0.028023752474216068
S019,Po7.,0.11303260756328784,0.10334409834357745,0.009688509219710387
S019,Po3.,0.08125846442337743,0.10417751849150954,-0.022919054068132105
S019,Poz.,0.04500468798833212,0.10032295030732367,-0.055318262318991555
S019,Po4.,0.08042504427544536,0.1037608084175435,-0.023335764142098134
S019,Po8.,0.12115845400562558,0.08771747056985102,0.03344098343577456
S019,O1..,0.08990519845817273,0.0962600270861548,-0.006354828627982076
S019,Oz..,0.065631836649651,0.07740389623919158,-0.011772059589540584
S019,O2..,0.07782060631315763,0.08813418064381706,-0.010313574330659436
S019,Iz..,0.06240233357641421,0.0622981560579227,0.00010417751849151058
S020,Fc5.,0.11272007500781331,0.09146786123554537,0.021252213772267936
S020,Fc3.,0.12501302218981145,0.09323887904990102,0.03177414313991042
S020,Fc1.,0.08896760079174915,0.08657151786644442,0.0023960829253047294
S020,Fcz.,0.10146890301073029,0.09667673716012085,0.004792165850609445
S020,Fc2.,0.09844775497447651,0.0916762162725284,0.006771538701948118
S020,Fc4.,0.11219918741535577,0.09490571934576518,0.01729346806959059
S020,Fc6.,0.10407334097301803,0.07886238149807272,0.02521095947494531
S020,C5..,0.12740910511511616,0.07084071257422649,0.056568392540889675
S020,C3..,0.12417960204187936,0.08209188457130952,0.042087717470569844
S020,C1..,0.1027190332326284,0.10292738826961141,-0.00020835503698300728
S020,Cz..,0.08438378997812272,0.09011355349515575,-0.005729763517033026
S020,C2..,0.10126054797374727,0.09042608605063028,0.01083446192311699
S020,C4..,0.1224085842275237,0.06542348161266799,0.056985102614855704
S020,C6..,0.07657047609125951,0.0743827482029378,0.0021877278883217083
S020,Cp5.,0.12647150744869257,0.06979893738931138,0.056672570059381186
S020,Cp3.,0.12084592145015106,0.07688300864673403,0.043962912803417034
S020,Cp1.,0.09219710386498593,0.09230128138347744,-0.00010417751849151058
S020,Cpz.,0.09907282008542556,0.09761433482654443,0.0014584852588811342
S020,Cp2.,0.09678091467861236,0.08292530471924159,0.013855609959370768
S020,Cp4.,0.1114699447859152,0.08928013334722366,0.02218981143869153
S020,Cp6.,0.08990519845817273,0.07052818001875195,0.019377018439420773
S020,Fp1.,0.06042296072507553,0.07594541098031045,-0.015522450255234917
S020,Fpz.,0.057505990207313264,0.07104906761120951,-0.013543077403896243
S020,Fp2.,0.05521408480050005,0.06479841650171893,-0.009584331701218876
S020,Af7.,0.07334097301802271,0.07198666527763309,0.0013543077403896236
S020,Af3.,0.04885925617251797,0.07990415668298781,-0.03104490051046984
S020,Afz.,0.0175018231065736,0.08230023960829252,-0.06479841650171893
S020,Af4.,0.04021252213772268,0.07688300864673403,-0.03667048650901135
S020,Af8.,0.056464215022398165,0.07261173038858214,-0.016147515366183973
S020,F7..,0.03729555161996041,0.07146577768517554,-0.03417022606521512
S020,F5..,0.01781435566204813,0.08594645275549537,-0.06813209709344724
S020,F3..,0.012813834774455673,0.08834253568080008,-0.0755287009063444
S020,F1..,0.03094072299197833,0.09219710386498593,-0.0612563808730076
S020,Fz..,0.02041879362433587,0.08552974268152932,-0.06511094905719346
S020,F2..,0.020939681216793415,0.09250963642046046,-0.07156995520366705
S020,F4..,0.02260652151265757,0.09084279612459631,-0.06823627461193874
S020,F6..,0.01791853318053964,0.0787582039795812,-0.06083967079904157
S020,F8..,0.05563079487446609,0.07959162412751328,-0.02396082925304719
S020,Ft7.,0.08355036983019065,0.06219397853943119,0.02135639129075946
S020,Ft8.,0.1266798624856756,0.0918845713095114,0.034795291176164186
S020,T7..,0.136368371705386,0.09063444108761329,0.0457339306177727
S020,T8..,0.1049067611209501,0.08365454734868215,0.02125221377226795
S020,T9..,0.070944890092718,0.05313053443066986,0.017814355662048136
S020,T10.,0.05802687779977081,0.05708928013334722,0.0009375976664235883
S020,Tp7.,0.06646525679758308,0.08230023960829252,-0.01583498281070944
S020,Tp8.,0.11188665485988124,0.0732367954995312,0.038649859360350036
S020,P7..,0.07709136368371705,0.1026148557141369,-0.025523492030419842
S020,P5..,0.08052922179393687,0.10021877278883216,-0.01968955099489529
S020,P3..,0.09490571934576518,0.09542660693822273,-0.0005208875924575529
S020,P1..,0.10146890301073029,0.09146786123554537,0.010001041775184918
S020,Pz..,0.09688509219710387,0.0939681216793416,0.0029169705177622685
S020,P2..,0.04198353995207834,0.08730076049588499,-0.04531722054380665
S020,P4..,0.10449005104698406,0.0786540264610897,0.02583602458589436
S020,P6..,0.11053234711949161,0.08375872486717366,0.026773622252317955
S020,P8..,0.10751119908323784,0.07521616835086989,0.032295030732367946
S020,Po7.,0.09146786123554537,0.10907386186061048,-0.017606000625065107
S020,Po3.,0.10896968434211897,0.10834461923116992,0.0006250651109490496
S020,Poz.,0.08230023960829252,0.09521825190123971,-0.012918012292947187
S020,Po4.,0.07021564746327742,0.07052818001875195,-0.00031253255547453174
S020,Po8.,0.09553078445671424,0.0807375768309199,0.01479320762579435
S020,O1..,0.08865506823627461,0.10115637045525576,-0.012501302218981145
S020,Oz..,0.05167204917178873,0.10532347119491614,-0.053651422023127414
S020,O2..,0.09823939993749349,0.10001041775184916,-0.001771017814355666
S020,Iz..,0.025940202104385874,0.05990207313261798,-0.0339618710282321
S021,Fc5.,0.0579227002812793,0.09823939993749349,-0.04031669965621419
S021,Fc3.,0.06281904365038025,0.09521825190123971,-0.03239920825085946
S021,Fc1.,0.06677778935305761,0.07375768309198875,-0.006979893738931139
S021,Fcz.,0.06521512657568497,0.08344619231169914,-0.01823106573601417
S021,Fc2.,0.06959058235232837,0.08511303260756328,-0.01552245025523491
S021,Fc4.,0.0688613397228878,0.08344619231169914,-0.014584852588811342
S021,Fc6.,0.06709032190853213,0.0755287009063444,-0.008438378997812274
S021,C5..,0.029898947807063234,0.0612563808730076,-0.031357433065944365
S021,C3..,0.06198562350244817,0.07354932805500573,-0.011563704552557563
S021,C1..,0.06240233357641421,0.0755287009063444,-0.013126367329930194
S021,Cz..,0.061777268465465156,0.06927804979685384,-0.007500781331388685
S021,C2..,0.05875612042921138,0.08500885508907177,-0.026252734659860395
S021,C4..,0.06646525679758308,0.10688613397228879,-0.0404208771747057
S021,C6..,0.07344515053651422,0.1126158974893218,-0.039170746952807575
S021,Cp5.,0.04781748098760288,0.058443587873736845,-0.010626106886133968
S021,Cp3.,0.06104802583602459,0.07573705594332743,-0.014689030107302839
S021,Cp1.,0.06313157620585477,0.0864673403479529,-0.023335764142098134
S021,Cpz.,0.05500572976351703,0.07990415668298781,-0.02489842691947078
S021,Cp2.,0.0633399312428378,0.09375976664235858,-0.030419835399520784
S021,Cp4.,0.0678195645379727,0.10032295030732367,-0.03250338576935097
S021,Cp6.,0.06761120950098969,0.1037608084175435,-0.03614959891655381
S021,Fp1.,0.02000208355036983,0.10469840608396708,-0.08469632253359724
S021,Fpz.,0.019481195957912284,0.10949057193457652,-0.09000937597666424
S021,Fp2.,0.019064485883946245,0.10438587352849255,-0.0853213876445463
S021,Af7.,0.020314616105844358,0.10511511615793312,-0.08480050005208876
S021,Af3.,0.03625377643504532,0.10532347119491614,-0.06906969475987082
S021,Afz.,0.034274403583706634,0.10480258360245859,-0.07052818001875195
S021,Af4.,0.03396187102823211,0.10886550682362746,-0.07490363579539536
S021,Af8.,0.021043858735284925,0.10521929367642463,-0.0841754349411397
S021,F7..,0.049588498801958536,0.11344931763725388,-0.06386081883529535
S021,F5..,0.05177622669028024,0.10198979060318783,-0.05021356391290759
S021,F3..,0.05125533909782269,0.10313574330659443,-0.05188040420877174
S021,F1..,0.061464735909990624,0.03687884154599438,0.024585894363996247
S021,Fz..,0.058443587873736845,0.10574018126888217,-0.047296593395145324
S021,F2..,0.06636107927909157,0.058443587873736845,0.007917491405354728
S021,F4..,0.049484321283467025,0.10657360141681425,-0.05708928013334723
S021,F6..,0.04469215543285759,0.1114699447859152,-0.06677778935305761
S021,F8..,0.04240025002604438,0.11844983852484633,-0.07604958849880195
S021,Ft7.,0.054589019689550995,0.10949057193457652,-0.05490155224502553
S021,Ft8.,0.07375768309198875,0.11459527034066049,-0.04083758724867173
S021,T7..,0.04823419106156891,0.08552974268152932,-0.03729555161996041
S021,T8..,0.06323575372434628,0.1060527138243567,-0.04281696010001042
S021,T9..,0.03927492447129909,0.0951140743827482,-0.05583914991144911
S021,T10.,0.06792374205646422,0.11594957808105011,-0.04802583602458589
S021,Tp7.,0.038233149286384,0.06729867694551515,-0.029065527659131153
S021,Tp8.,0.06292322116887175,0.10803208667569539,-0.04510886550682364
S021,P7..,0.03583706636107928,0.051567871653297216,-0.015730805292217938
S021,P5..,0.04219189498906136,0.06927804979685384,-0.02708615480779248
S021,P3..,0.04802583602458589,0.07688300864673403,-0.02885717262214814
S021,P1..,0.0513595166163142,0.08115428690488592,-0.02979477028857172
S021,Pz..,0.05375559954161892,0.08677987290342744,-0.03302427336180852
S021,P2..,0.05542243983748307,0.09157203875403688,-0.03614959891655381
S021,P4..,0.059589540577143454,0.09219710386498593,-0.03260756328784248
S021,P6..,0.06542348161266799,0.09730180227106991,-0.03187832065840192
S021,P8..,0.06281904365038025,0.10032295030732367,-0.03750390665694342
S021,Po7.,0.038233149286384,0.060110428169601,-0.021877278883217
S021,Po3.,0.04312949265548495,0.0755287009063444,-0.03239920825085946
S021,Poz.,0.047400770913636835,0.08480050005208876,-0.03739972913845193
S021,Po4.,0.05531826231899156,0.0884467131992916,-0.03312845088030003
S021,Po8.,0.05698510261485571,0.09323887904990102,-0.036253776435045314
S021,O1..,0.04000416710073966,0.054693197208042506,-0.014689030107302846
S021,Oz..,0.040420877174705695,0.06313157620585477,-0.022710699031149077
S021,O2..,0.04833836858006042,0.07448692572142931,-0.02614855714136889
S021,Iz..,0.03594124387957079,0.0481300135430774,-0.012188769663506613
S022,Fc5.,0.02437753932701323,0.07948744660902177,-0.05510990728200854
S022,Fc3.,0.024690071882487757,0.09584331701218878,-0.07115324512970102
S022,Fc1.,0.023023231586623605,0.07229919783310762,-0.04927596624648402
S022,Fcz.,0.024794249400979268,0.08323783727471612,-0.05844358787373685
S022,Fc2.,0.02656526721533493,0.0853213876445463,-0.05875612042921137
S022,Fc4.,0.038545681841858526,0.08886342327325764,-0.05031774143139911
S022,Fc6.,0.022814876549640588,0.0885508907177831,-0.06573601416814251
S022,C5..,0.035524533805604754,0.09407229919783311,-0.058547765392228356
S022,C3..,0.03187832065840192,0.08511303260756328,-0.053234711949161365
S022,C1..,0.04198353995207834,0.08938431086571517,-0.047400770913636835
S022,Cz..,0.04292113761850193,0.0874049380143765,-0.04448380039587457
S022,C2..,0.06948640483383686,0.07479945827690385,-0.005313053443066984
S022,C4..,0.05886029794770289,0.09553078445671424,-0.036670486509011356
S022,C6..,0.03792061673090947,0.09584331701218878,-0.057922700281279306
S022,Cp5.,0.04792165850609439,0.0993853526409001,-0.051463694134805706
S022,Cp3.,0.05219293676424627,0.0896968434211897,-0.037503906656943434
S022,Cp1.,0.05302635691217835,0.09438483175330764,-0.04135847484112929
S022,Cpz.,0.04979685383894156,0.0993853526409001,-0.049588498801958536
S022,Cp2.,0.04385873528492551,0.08511303260756328,-0.04125429732263777
S022,Cp4.,0.0447963329513491,0.0993853526409001,-0.054589019689550995
S022,Cp6.,0.043442025210959474,0.08980102093968122,-0.04635899572872174
S022,Fp1.,0.018751953328471717,0.06417335139076988,-0.04542139806229816
S022,Fpz.,0.01843942077299719,0.047609125950619856,-0.029169705177622667
S022,Fp2.,0.01812688821752266,0.06000625065110949,-0.04187936243358683
S022,Af7.,0.020835503698301908,0.07823731638712365,-0.057401812688821746
S022,Af3.,0.01791853318053964,0.09428065423481613,-0.07636212105427649
S022,Afz.,0.01812688821752266,0.06948640483383686,-0.0513595166163142
S022,Af4.,0.01771017814355662,0.08688405042191895,-0.06917387227836233
S022,Af8.,0.023544119179081155,0.04208771747056985,-0.018543598291488696
S022,F7..,0.021148036253776436,0.08605063027398688,-0.06490259402021044
S022,F5..,0.01812688821752266,0.10792790915720388,-0.08980102093968122
S022,F3..,0.019064485883946245,0.07261173038858214,-0.053547244504635896
S022,F1..,0.019377018439420773,0.08334201479320763,-0.06396499635378686
S022,Fz..,0.01843942077299719,0.07459110323992083,-0.05615168246692363
S022,F2..,0.01802271069903115,0.08084175434941139,-0.06281904365038024
S022,F4..,0.01791853318053964,0.08011251171997083,-0.06219397853943119
S022,F6..,0.0175018231065736,0.08157099697885196,-0.06406917387227837
S022,F8..,0.02000208355036983,0.07917491405354725,-0.05917283050317742
S022,Ft7.,0.034378581102198144,0.08292530471924159,-0.048546723617043444
S022,Ft8.,0.03323262839879154,0.038649859360350036,-0.005417230961558495
S022,T7..,0.04208771747056985,0.09198874882800291,-0.04990103135743306
S022,T8..,0.038337326804875504,0.0852172101260548,-0.04687988332117929
S022,T9..,0.03802479424940098,0.0962600270861548,-0.058235232836753824
S022,T10.,0.06875716220439629,0.057610167725804774,0.011146994478591514
S022,Tp7.,0.04906761120950099,0.08480050005208876,-0.035732888842587775
S022,Tp8.,0.0677153870194812,0.09084279612459631,-0.023127409105115113
S022,P7..,0.06792374205646422,0.08469632253359725,-0.016772580477133037
S022,P5..,0.049588498801958536,0.09813522241900198,-0.048546723617043444
S022,P3..,0.06365246379831233,0.08480050005208876,-0.02114803625377644
S022,P1..,0.061673090946973645,0.09605167204917178,-0.03437858110219814
S022,Pz..,0.04906761120950099,0.08719658297739348,-0.03812897176789249
S022,P2..,0.057505990207313264,0.0939681216793416,-0.036462131472028335
S022,P4..,0.060110428169601,0.09500989686425669,-0.03489946869465569
S022,P6..,0.06219397853943119,0.09303052401291802,-0.030836545473486826
S022,P8..,0.07625794353578498,0.0885508907177831,-0.012292947181998123
S022,Po7.,0.07844567142410667,0.1016772580477133,-0.023231586623606623
S022,Po3.,0.07219502031461611,0.10365663089905199,-0.031461610584435876
S022,Poz.,0.07709136368371705,0.07990415668298781,-0.002812792999270758
S022,Po4.,0.06479841650171893,0.08021668923846234,-0.015418272736743413
S022,Po8.,0.08250859464527555,0.08688405042191895,-0.004375455776643403
S022,O1..,0.07625794353578498,0.09198874882800291,-0.01573080529221793
S022,Oz..,0.0786540264610897,0.07896655901656423,-0.00031253255547453174
S022,O2..,0.06854880716741327,0.07198666527763309,-0.0034378581102198214
S022,Iz..,0.08792582560683404,0.08615480779247839,0.001771017814355652
S023,Fc5.,0.11844983852484633,0.08896760079174915,0.02948223773309719
S023,Fc3.,0.08990519845817273,0.10459422856547557,-0.014689030107302839
S023,Fc1.,0.0644858839462444,0.08261277216376706,-0.01812688821752266
S023,Fcz.,0.06917387227836233,0.058651942910719866,0.010521929367642464
S023,Fc2.,0.04406709032190853,0.054693197208042506,-0.010626106886133975
S023,Fc4.,0.10355245338056047,0.07886238149807272,0.024690071882487757
S023,Fc6.,0.11199083237837275,0.11094905719345766,0.001041775184915092
S023,C5..,0.06511094905719346,0.10511511615793312,-0.04000416710073966
S023,C3..,0.076466298572768,0.10178143556620481,-0.025315136993436807
S023,C1..,0.05979789561412647,0.08105010938639441,-0.021252213772267943
S023,Cz..,0.061464735909990624,0.07167413272215856,-0.010209396812167933
S023,C2..,0.051463694134805706,0.06115220335451609,-0.009688509219710387
S023,C4..,0.05771434524429628,0.03573288884258777,0.02198145640170851
S023,C6..,0.10323992082508594,0.05417230961558496,0.04906761120950098
S023,Cp5.,0.10876132930513595,0.0907386186061048,0.01802271069903115
S023,Cp3.,0.06490259402021044,0.08698822794041046,-0.02208563392020002
S023,Cp1.,0.06823627461193875,0.0677153870194812,0.0005208875924575529
S023,Cpz.,0.06761120950098969,0.046567350765704764,0.021043858735284922
S023,Cp2.,0.05385977706011043,0.041775184915095326,0.012084592145015102
S023,Cp4.,0.05688092509636421,0.04406709032190853,0.012813834774455676
S023,Cp6.,0.058443587873736845,0.052713824356703826,0.005729763517033019
S023,Fp1.,0.08500885508907177,0.04104594228565476,0.04396291280341701
S023,Fpz.,0.07407021564746327,0.04271278258151891,0.031357433065944365
S023,Fp2.,0.08250859464527555,0.061568913428482135,0.02093968121679341
S023,Af7.,0.09584331701218878,0.047609125950619856,0.04823419106156892
S023,Af3.,0.08042504427544536,0.08375872486717366,-0.003333680591728297
S023,Afz.,0.0852172101260548,0.07969580164600479,0.005521408480050005
S023,Af4.,0.08469632253359725,0.07729971872070007,0.007396603812897182
S023,Af8.,0.09261381393895197,0.0962600270861548,-0.0036462131472028286
S023,F7..,0.11605375559954162,0.08990519845817273,0.02614855714136889
S023,F5..,0.08490467757058028,0.09042608605063028,-0.005521408480050005
S023,F3..,0.07813313886863214,0.071153245129701,0.006979893738931139
S023,F1..,0.07677883112824252,0.06740285446400666,0.009375976664235855
S023,Fz..,0.060631315762058546,0.05010938639441608,0.010521929367642464
S023,F2..,0.06990311490780289,0.05375559954161892,0.016147515366183973
S023,F4..,0.06698614439004064,0.058547765392228356,0.00843837899781228
S023,F6..,0.1081362641941869,0.09011355349515575,0.01802271069903115
S023,F8..,0.10907386186061048,0.037608084175434944,0.07146577768517554
S023,Ft7.,0.10896968434211897,0.054797374726534016,0.05417230961558495
S023,Ft8.,0.08032086675695385,0.11688717574747369,-0.03656630899051984
S023,T7..,0.10521929367642463,0.040420877174705695,0.06479841650171894
S023,T8..,0.08667569538493593,0.10469840608396708,-0.01802271069903115
S023,T9..,0.10594853630586519,0.09417647671632462,0.01177205958954057
S023,T10.,0.004271278258151891,0.01583498281070945,-0.011563704552557556
S023,Tp7.,0.1181373059693718,0.06406917387227837,0.054068132097093435
S023,Tp8.,0.06323575372434628,0.03896239191582457,0.024273361808521715
S023,P7..,0.03927492447129909,0.0974059797895614,-0.05813105531826231
S023,P5..,0.06719449942702364,0.08386290238566517,-0.016668402958641526
S023,P3..,0.04417126784040004,0.0916762162725284,-0.04750494843212835
S023,P1..,0.05531826231899156,0.06042296072507553,-0.00510469840608397
S023,Pz..,0.06104802583602459,0.05740181268882175,0.0036462131472028356
S023,P2..,0.04906761120950099,0.04646317324721325,0.0026044379622877367
S023,P4..,0.04417126784040004,0.07136160016668402,-0.027190332326283984
S023,P6..,0.0338576935097406,0.06354828627982081,-0.029690592770080217
S023,P8..,0.03708719658297739,0.04458797791436608,-0.007500781331388685
S023,Po7.,0.03229503073236795,0.0874049380143765,-0.05510990728200855
S023,Po3.,0.038441504323367015,0.10198979060318783,-0.06354828627982081
S023,Poz.,0.04312949265548495,0.045317220543806644,-0.0021877278883216944
S023,Po4.,0.020314616105844358,0.03594124387957079,-0.01562662777372643
S023,Po8.,0.02000208355036983,0.03792061673090947,-0.01791853318053964
S023,O1..,0.030419835399520784,0.06281904365038025,-0.03239920825085947
S023,Oz..,0.025210959474945307,0.036566308990519845,-0.011355349515574539
S023,O2..,0.06990311490780289,0.09594749453068029,-0.026044379622877395
S023,Iz..,0.015418272736743411,0.025210959474945307,-0.009792686738201896
S024,Fc5.,0.08261277216376706,0.07386186061048026,0.008750911553286791
S024,Fc3.,0.08271694968225857,0.07261173038858214,0.010105219293676429
S024,Fc1.,0.06094384831753308,0.07167413272215856,-0.010730284404625479
S024,Fcz.,0.06823627461193875,0.07250755287009064,-0.004271278258151892
S024,Fc2.,0.0862589853109699,0.07792478383164914,0.008334201479320763
S024,Fc4.,0.08323783727471612,0.06719449942702364,0.016043337847692477
S024,Fc6.,0.048650901135534955,0.06490259402021044,-0.016251692884675484
S024,C5..,0.06927804979685384,0.06750703198249818,0.001771017814355666
S024,C3..,0.07459110323992083,0.07042400250026044,0.0041671007396603815
S024,C1..,0.07459110323992083,0.07344515053651422,0.0011459527034066025
S024,Cz..,0.07823731638712365,0.07792478383164914,0.00031253255547451786
S024,C2..,0.07469528075841234,0.07084071257422649,0.00385456818418585
S024,C4..,0.07636212105427649,0.06469423898322742,0.011667882071049074
S024,C6..,0.07021564746327742,0.058547765392228356,0.011667882071049067
S024,Cp5.,0.06375664131680384,0.0665694343160746,-0.002812792999270758
S024,Cp3.,0.06323575372434628,0.06688196687154913,-0.0036462131472028425
S024,Cp1.,0.07657047609125951,0.0743827482029378,0.0021877278883217083
S024,Cpz.,0.07386186061048026,0.07573705594332743,-0.0018751953328471627
S024,Cp2.,0.06500677153870195,0.06969475987081988,-0.004687988332117934
S024,Cp4.,0.06531930409417648,0.06313157620585477,0.0021877278883217083
S024,Cp6.,0.0590686529846859,0.05542243983748307,0.0036462131472028286
S024,Fp1.,0.08052922179393687,0.07917491405354725,0.0013543077403896236
S024,Fpz.,0.054797374726534016,0.07511199083237838,-0.02031461610584436
S024,Fp2.,0.12095009896864256,0.07584123346181894,0.04510886550682362
S024,Af7.,0.08500885508907177,0.08000833420147932,0.005000520887592452
S024,Af3.,0.07167413272215856,0.07917491405354725,-0.007500781331388692
S024,Afz.,0.050734451505365145,0.07282008542556516,-0.022085633920200014
S024,Af4.,0.09157203875403688,0.07177831024065007,0.019793728513386816
S024,Af8.,0.12032503385769351,0.07771642879466611,0.0426086050630274
S024,F7..,0.052818001875195336,0.06761120950098969,-0.01479320762579435
S024,F5..,0.08448796749661423,0.07563287842483592,0.008855089071778316
S024,F3..,0.07407021564746327,0.07698718616522554,-0.0029169705177622685
S024,F1..,0.05542243983748307,0.0677153870194812,-0.012292947181998123
S024,Fz..,0.048442546098551933,0.07302844046254818,-0.024585894363996247
S024,F2..,0.07031982498176893,0.06677778935305761,0.003542035628711318
S024,F4..,0.08427961245963121,0.07334097301802271,0.0109386394416085
S024,F6..,0.04906761120950099,0.07354932805500573,-0.024481716845504743
S024,F8..,0.04448380039587457,0.07448692572142931,-0.03000312532555474
S024,Ft7.,0.05000520887592458,0.0720908427961246,-0.02208563392020002
S024,Ft8.,0.05917283050317741,0.059589540577143454,-0.0004167100739660423
S024,T7..,0.057505990207313264,0.07042400250026044,-0.01291801229294718
S024,T8..,0.05604750494843213,0.052609646838212315,0.0034378581102198144
S024,T9..,0.057505990207313264,0.07084071257422649,-0.013334722366913222
S024,T10.,0.040629232211688716,0.048442546098551933,-0.007813313886863217
S024,Tp7.,0.05688092509636421,0.0666736118345661,-0.009792686738201897
S024,Tp8.,0.04792165850609439,0.05083862902385665,-0.0029169705177622615
S024,P7..,0.056360037503906654,0.06511094905719346,-0.008750911553286805
S024,P5..,0.05708928013334722,0.0688613397228878,-0.011772059589540577
S024,P3..,0.05833941035524534,0.06906969475987082,-0.010730284404625479
S024,P1..,0.06948640483383686,0.07188248775914158,-0.0023960829253047156
S024,Pz..,0.06427752890926137,0.07011146994478591,-0.005833941035524537
S024,P2..,0.06313157620585477,0.0634441087613293,-0.00031253255547453174
S024,P4..,0.06323575372434628,0.061568913428482135,0.0016668402958641484
S024,P6..,0.051567871653297216,0.05385977706011043,-0.002291905406813212
S024,P8..,0.050630273986873635,0.05094280654234816,-0.0003125325554745248
S024,Po7.,0.048546723617043444,0.07375768309198875,-0.02521095947494531
S024,Po3.,0.06000625065110949,0.0688613397228878,-0.008855089071778309
S024,Poz.,0.05875612042921138,0.06386081883529535,-0.00510469840608397
S024,Po4.,0.050630273986873635,0.058443587873736845,-0.00781331388686321
S024,Po8.,0.0513595166163142,0.06438170642775289,-0.013022189811438684
S024,O1..,0.05781852276278779,0.06834045213043026,-0.010521929367642471
S024,Oz..,0.058651942910719866,0.06427752890926137,-0.005625585998541509
S024,O2..,0.05886029794770289,0.0645900614647359,-0.005729763517033019
S024,Iz..,0.060631315762058546,0.07229919783310762,-0.011667882071049074
S025,Fc5.,0.07729971872070007,0.11136576726742368,-0.03406604854672361
S025,Fc3.,0.07907073653505574,0.09344723408688405,-0.014376497551828307
S025,Fc1.,0.07261173038858214,0.07386186061048026,-0.001250130221898127
S025,Fcz.,0.09792686738201896,0.08657151786644442,0.011355349515574542
S025,Fc2.,0.09480154182727367,0.09230128138347744,0.002500260443796226
S025,Fc4.,0.09761433482654443,0.10084383789978123,-0.0032295030732368
S025,Fc6.,0.08282112720075008,0.10980310449005105,-0.026981977289300976
S025,C5..,0.09136368371705386,0.09480154182727367,-0.0034378581102198075
S025,C3..,0.08928013334722366,0.1027190332326284,-0.01343889988540474
S025,C1..,0.08157099697885196,0.10157308052922179,-0.020002083550369823
S025,Cz..,0.08219606208980101,0.08875924575476613,-0.006563183664965111
S025,C2..,0.10042712782581519,0.09271799145744349,0.0077091363683717
S025,C4..,0.09490571934576518,0.09730180227106991,-0.0023960829253047294
S025,C6..,0.05625585998541515,0.07282008542556516,-0.01656422544015001
S025,Cp5.,0.09480154182727367,0.10365663089905199,-0.008855089071778316
S025,Cp3.,0.08719658297739348,0.10209396812167934,-0.01489738514428586
S025,Cp1.,0.09542660693822273,0.10480258360245859,-0.009375976664235855
S025,Cpz.,0.09678091467861236,0.09532242941973122,0.0014584852588811342
S025,Cp2.,0.09219710386498593,0.09823939993749349,-0.006042296072507558
S025,Cp4.,0.10626106886133972,0.09063444108761329,0.015626627773726434
S025,Cp6.,0.09792686738201896,0.10188561308469632,-0.00395874570267736
S025,Fp1.,0.0916762162725284,0.09751015730805292,-0.005833941035524523
S025,Fpz.,0.07698718616522554,0.10084383789978123,-0.023856651734555687
S025,Fp2.,0.0742785706844463,0.092822168975935,-0.018543598291488703
S025,Af7.,0.10438587352849255,0.0862589853109699,0.018126888217522646
S025,Af3.,0.06761120950098969,0.10032295030732367,-0.03271174080633399
S025,Afz.,0.027294509844775498,0.10740702156474632,-0.08011251171997083
S025,Af4.,0.04729659339514533,0.09271799145744349,-0.045421398062298154
S025,Af8.,0.08490467757058028,0.10157308052922179,-0.016668402958641512
S025,F7..,0.06479841650171893,0.09896864256693405,-0.03417022606521512
S025,F5..,0.03698301906448588,0.10688613397228879,-0.0699031149078029
S025,F3..,0.06969475987081988,0.10136472549223878,-0.0316699656214189
S025,F1..,0.04271278258151891,0.09323887904990102,-0.05052609646838212
S025,Fz..,0.0895926659026982,0.08907177831024066,0.000520887592457539
S025,F2..,0.03989998958224815,0.08792582560683404,-0.04802583602458589
S025,F4..,0.038545681841858526,0.09980206271486614,-0.06125638087300761
S025,F6..,0.04833836858006042,0.10594853630586519,-0.05761016772580477
S025,F8..,0.027607042400250026,0.08261277216376706,-0.05500572976351703
S025,Ft7.,0.060110428169601,0.10584435878737368,-0.04573393061777268
S025,Ft8.,0.06948640483383686,0.08605063027398688,-0.016564225440150016
S025,T7..,0.07604958849880196,0.06271486613188874,0.013334722366913215
S025,T8..,0.09959370767788311,0.10084383789978123,-0.001250130221898113
S025,T9..,0.09407229919783311,0.08469632253359725,0.009375976664235855
S025,T10.,0.0034378581102198144,0.05344306698614439,-0.05000520887592458
S025,Tp7.,0.0896968434211897,0.09646838212313782,-0.006771538701948118
S025,Tp8.,0.09053026356912178,0.09917699760391707,-0.008646734034795295
S025,P7..,0.11730388582143973,0.10532347119491614,0.011980414626523592
S025,P5..,0.10282321075111991,0.11011563704552557,-0.007292426294405657
S025,P3..,0.09959370767788311,0.10469840608396708,-0.005104698406083963
S025,P1..,0.09355141160537556,0.1016772580477133,-0.008125846442337742
S025,Pz..,0.0916762162725284,0.10355245338056047,-0.011876237108032081
S025,P2..,0.07688300864673403,0.09219710386498593,-0.015314095218251902
S025,P4..,0.09230128138347744,0.10323992082508594,-0.0109386394416085
S025,P6..,0.10209396812167934,0.10105219293676425,0.001041775184915092
S025,P8..,0.09438483175330764,0.09594749453068029,-0.0015626627773726448
S025,Po7.,0.11428273778518595,0.11438691530367746,-0.00010417751849151058
S025,Po3.,0.10532347119491614,0.10188561308469632,0.0034378581102198214
S025,Poz.,0.10844879674966142,0.10969892697155954,-0.001250130221898127
S025,Po4.,0.08052922179393687,0.10240650067715387,-0.021877278883217
S025,Po8.,0.12115845400562558,0.11647046567350766,0.0046879883321179205
S025,O1..,0.12855505781852275,0.12230440670903218,0.006250651109490565
S025,Oz..,0.11417856026669444,0.11657464319199917,-0.0023960829253047294
S025,O2..,0.09563496197520575,0.09021773101364726,0.005417230961558495
S025,Iz..,0.12886759037399728,0.12876341285550577,0.00010417751849151058
S026,Fc5.,0.012813834774455673,0.11303260756328784,-0.10021877278883216
S026,Fc3.,0.012813834774455673,0.10553182623189916,-0.09271799145744349
S026,Fc1.,0.05313053443066986,0.1006354828627982,-0.047504948432128345
S026,Fcz.,0.018751953328471717,0.0971976247525784,-0.07844567142410669
S026,Fc2.,0.018647775809980206,0.10365663089905199,-0.08500885508907177
S026,Fc4.,0.03573288884258777,0.08709240545890197,-0.0513595166163142
S026,Fc6.,0.04312949265548495,0.10824044171267841,-0.06511094905719346
S026,C5..,0.02885717262214814,0.06198562350244817,-0.03312845088030003
S026,C3..,0.0775080737576831,0.09521825190123971,-0.017710178143556618
S026,C1..,0.05115116157933118,0.10480258360245859,-0.05365142202312741
S026,Cz..,0.050526096468382124,0.10251067819564538,-0.05198458172726326
S026,C2..,0.05219293676424627,0.10334409834357745,-0.05115116157933118
S026,C4..,0.06365246379831233,0.07250755287009064,-0.008855089071778316
S026,C6..,0.10198979060318783,0.1179289509323888,-0.015939160329200966
S026,Cp5.,0.08490467757058028,0.10969892697155954,-0.024794249400979268
S026,Cp3.,0.08938431086571517,0.10949057193457652,-0.020106261068861347
S026,Cp1.,0.07719554120220856,0.10417751849150954,-0.026981977289300976
S026,Cpz.,0.09438483175330764,0.11626211063652464,-0.021877278883217
S026,Cp2.,0.09209292634649442,0.10907386186061048,-0.016980935514116058
S026,Cp4.,0.10594853630586519,0.09709344723408689,0.008855089071778302
S026,Cp6.,0.07188248775914158,0.08709240545890197,-0.015209917699760392
S026,Fp1.,0.02708615480779248,0.10115637045525576,-0.07407021564746327
S026,Fpz.,0.030732367954995312,0.09907282008542556,-0.06834045213043025
S026,Fp2.,0.02489842691947078,0.09469736430878216,-0.06979893738931138
S026,Af7.,0.04271278258151891,0.08344619231169914,-0.040733409730180234
S026,Af3.,0.03489946869465569,0.09896864256693405,-0.06406917387227837
S026,Afz.,0.018543598291488696,0.1005313053443067,-0.08198770705281799
S026,Af4.,0.031565788102927386,0.0951140743827482,-0.06354828627982081
S026,Af8.,0.04792165850609439,0.07886238149807272,-0.03094072299197833
S026,F7..,0.02885717262214814,0.08000833420147932,-0.05115116157933118
S026,F5..,0.019377018439420773,0.10042712782581519,-0.08105010938639441
S026,F3..,0.01354307740389624,0.10855297426815293,-0.09500989686425669
S026,F1..,0.01552245025523492,0.10824044171267841,-0.09271799145744349
S026,Fz..,0.016772580477133033,0.1060527138243567,-0.08928013334722366
S026,F2..,0.011876237108032086,0.10323992082508594,-0.09136368371705386
S026,F4..,0.01781435566204813,0.10459422856547557,-0.08677987290342744
S026,F6..,0.017397645588082093,0.09344723408688405,-0.07604958849880195
S026,F8..,0.01562662777372643,0.09011355349515575,-0.07448692572142931
S026,Ft7.,0.014897385144285864,0.08334201479320763,-0.06844462964892177
S026,Ft8.,0.013855609959370768,0.11032399208250859,-0.09646838212313782
S026,T7..,0.04927596624648401,0.12188769663506616,-0.07261173038858215
S026,T8..,0.0513595166163142,0.11188665485988124,-0.060527138243567036
S026,T9..,0.10771955412022086,0.11282425252630482,-0.005104698406083963
S026,T10.,0.09636420460464631,0.10834461923116992,-0.011980414626523606
S026,Tp7.,0.10501093863944161,0.11167829982289822,-0.006667361183456608
S026,Tp8.,0.10428169601000105,0.10855297426815293,-0.004271278258151878
S026,P7..,0.10219814564017085,0.10084383789978123,0.0013543077403896236
S026,P5..,0.08688405042191895,0.10730284404625481,-0.020418793624335865
S026,P3..,0.08115428690488592,0.11897072611730389,-0.037816439212417965
S026,P1..,0.11074070215647464,0.11542869048859256,-0.0046879883321179205
S026,Pz..,0.1049067611209501,0.11084487967496615,-0.0059381185540160475
S026,P2..,0.0775080737576831,0.10646942389832274,-0.02896135014063965
S026,P4..,0.0732367954995312,0.12230440670903218,-0.04906761120950098
S026,P6..,0.08469632253359725,0.1179289509323888,-0.03323262839879154
S026,P8..,0.09438483175330764,0.08709240545890197,0.007292426294405671
S026,Po7.,0.09094697364308782,0.12147098656110011,-0.030524012918012294
S026,Po3.,0.08563392020002084,0.11761641837691426,-0.03198249817689343
S026,Poz.,0.09407229919783311,0.10792790915720388,-0.013855609959370768
S026,Po4.,0.050734451505365145,0.1026148557141369,-0.05188040420877175
S026,Po8.,0.09751015730805292,0.11167829982289822,-0.0141681425148453
S026,O1..,0.09313470153140953,0.11094905719345766,-0.01781435566204813
S026,Oz..,0.10126054797374727,0.11303260756328784,-0.01177205958954057
S026,O2..,0.0896968434211897,0.06896551724137931,0.020731326179810397
S026,Iz..,0.09480154182727367,0.12261693926450672,-0.027815397437233047
S027,Fc5.,0.02864881758516512,0.05594332742994062,-0.027294509844775498
S027,Fc3.,0.04708823835816231,0.06636107927909157,-0.019272840920929263
S027,Fc1.,0.0447963329513491,0.07219502031461611,-0.02739868736326701
S027,Fcz.,0.023231586623606627,0.08250859464527555,-0.05927700802166892
S027,Fc2.,0.0557349723929576,0.09240545890196895,-0.036670486509011356
S027,Fc4.,0.05729763517033024,0.07084071257422649,-0.013543077403896243
S027,Fc6.,0.0644858839462444,0.0644858839462444,0.0
S027,C5..,0.08250859464527555,0.0579227002812793,0.024585894363996247
S027,C3..,0.09209292634649442,0.0775080737576831,0.014584852588811328
S027,C1..,0.06427752890926137,0.07146577768517554,-0.0071882487759141606
S027,Cz..,0.07677883112824252,0.08386290238566517,-0.00708407125742265
S027,C2..,0.08448796749661423,0.09490571934576518,-0.010417751849150947
S027,C4..,0.07177831024065007,0.08552974268152932,-0.013751432440879258
S027,C6..,0.07219502031461611,0.06979893738931138,0.0023960829253047294
S027,Cp5.,0.07073653505573498,0.07834149390561516,-0.007604958849880189
S027,Cp3.,0.07177831024065007,0.08469632253359725,-0.012918012292947187
S027,Cp1.,0.08803000312532555,0.08334201479320763,0.0046879883321179205
S027,Cpz.,0.09240545890196895,0.08980102093968122,0.0026044379622877367
S027,Cp2.,0.08573809771851235,0.09084279612459631,-0.005104698406083963
