volunteer,channel,ETC for EyesOpen,ETC for EyesClosed,Difference EO - EC
S001,Fc5.,0.02510503125320217,0.09304231990982682,-0.06793728865662466
S001,Fc3.,0.06967927041705092,0.09130033814940056,-0.021621067732349633
S001,Fc1.,0.07879905728045906,0.09591146633876421,-0.017112409058305147
S001,Fcz.,0.08761143559790963,0.0946818321549339,-0.0070703965570242805
S001,Fc2.,0.08781637462854801,0.0947843016702531,-0.0069679270417050965
S001,Fc4.,0.08730402705195205,0.0947843016702531,-0.007480274618301058
S001,Fc6.,0.09181268572599652,0.09632134440004099,-0.004508658674044472
S001,C5..,0.03166308023363049,0.09857567373706322,-0.06691259350343273
S001,C3..,0.0755200327902449,0.09857567373706322,-0.02305564094681832
S001,C1..,0.08064350855620453,0.09427195409365714,-0.013628445537452613
S001,Cz..,0.08463981965365304,0.09488677118557229,-0.010246951531919249
S001,C2..,0.0839225330464187,0.0946818321549339,-0.01075929910851521
S001,C4..,0.08627933189876012,0.09099292960344298,-0.004713597704682854
S001,C6..,0.09283738087918844,0.10185469822727738,-0.009017317348088943
S001,Cp5.,0.056563172456194286,0.10011271646685112,-0.04354954401065683
S001,Cp3.,0.07797930115790552,0.09632134440004099,-0.018342043242135467
S001,Cp1.,0.07470027666769136,0.09509171021621068,-0.020391433548519328
S001,Cpz.,0.07931140485705503,0.09488677118557229,-0.015575366328517262
S001,Cp2.,0.08269289886258838,0.09632134440004099,-0.013628445537452613
S001,Cp4.,0.08443488062301466,0.0837175940157803,0.0007172866072343576
S001,Cp6.,0.07644225842811764,0.09457936263961471,-0.01813710421149707
S001,Fp1.,0.06035454452300441,0.07295829490726509,-0.012603750384260683
S001,Fpz.,0.05758786760938621,0.08043856952556615,-0.02285070191617994
S001,Fp2.,0.04959524541448919,0.0755200327902449,-0.02592478737575571
S001,Af7.,0.062403934829388254,0.07357311199918025,-0.011169177169791995
S001,Af3.,0.05728045906342863,0.07398299006045701,-0.016702530997028384
S001,Afz.,0.06988420944768932,0.08750896608259043,-0.01762475663490111
S001,Af4.,0.055128599241725584,0.07408545957577621,-0.018956860334050626
S001,Af8.,0.062403934829388254,0.07060149605492366,-0.008197561225535409
S001,F7..,0.020186494517880932,0.08361512450046112,-0.06342862998258018
S001,F5..,0.05266933087406497,0.08750896608259043,-0.03483963520852546
S001,F3..,0.07203606926939235,0.08433241110769546,-0.01229634183830311
S001,F1..,0.0757249718208833,0.09027564299620863,-0.014550671175325339
S001,Fz..,0.08074597807152373,0.09304231990982682,-0.012296341838303096
S001,F2..,0.08013116097960857,0.09683369197663695,-0.016702530997028384
S001,F4..,0.07972128291833179,0.0934521979711036,-0.013730915052771811
S001,F6..,0.07470027666769136,0.08218055128599241,-0.007480274618301058
S001,F8..,0.04068039758171944,0.07060149605492366,-0.029921098473204226
S001,Ft7.,0.022030945793626397,0.09703863100727533,-0.07500768521364894
S001,Ft8.,0.04939030638385081,0.09263244184855006,-0.04324213546469925
S001,T7..,0.027359360590224407,0.10472384465621477,-0.07736448406599036
S001,T8..,0.1029818628957885,0.126139973357926,-0.023158110462137504
S001,T9..,0.02141612870171124,0.09765344809919049,-0.07623731939747926
S001,T10.,0.04908289783789323,0.12398811353622298,-0.07490521569832975
S001,Tp7.,0.028896403320012296,0.09683369197663695,-0.06793728865662466
S001,Tp8.,0.07193359975407317,0.07449533763705297,-0.0025617378829798088
S001,P7..,0.051952044266830616,0.10123988113536223,-0.04928783686853161
S001,P5..,0.06793728865662466,0.10001024695153192,-0.032072958294907264
S001,P3..,0.07797930115790552,0.09283738087918844,-0.014858079721282919
S001,P1..,0.0782867097038631,0.09560405779280665,-0.017317348088943543
S001,Pz..,0.07633978891279844,0.0946818321549339,-0.018342043242135467
S001,P2..,0.07470027666769136,0.09632134440004099,-0.021621067732349633
S001,P4..,0.07377805102981863,0.09642381391536017,-0.022645762885541543
S001,P6..,0.07982375243365099,0.09673122246131775,-0.016907470027666766
S001,P8..,0.08822625268982477,0.09703863100727533,-0.008812378317450562
S001,Po7.,0.0755200327902449,0.09273491136386924,-0.017214878573624345
S001,Po3.,0.07531509375960652,0.09119786863408136,-0.015882774874474842
S001,Poz.,0.07623731939747926,0.08986576493493185,-0.0136284455374526
S001,Po4.,0.08627933189876012,0.08873860026642073,-0.002459268367660611
S001,Po8.,0.08966082590429347,0.08043856952556615,0.009222256378727325
S001,O1..,0.0810533866174813,0.0852546367455682,-0.004201250128086906
S001,Oz..,0.07808177067322472,0.08566451480684496,-0.007582744133620242
S001,O2..,0.08166820370939645,0.08709908802131366,-0.005430884311917211
S001,Iz..,0.08095091710216211,0.08576698432216416,-0.0048160672200020516
S002,Fc5.,0.1141510400655805,0.12757454657239473,-0.013423506506814231
S002,Fc3.,0.07265088636130751,0.11835229019366739,-0.04570140383235988
S002,Fc1.,0.05748539809406702,0.1167127779485603,-0.059227379854493285
S002,Fcz.,0.07347064248386105,0.1072855825391946,-0.033814940055333545
S002,Fc2.,0.04949277589917,0.11353622297366534,-0.06404344707449533
S002,Fc4.,0.07859411824982068,0.1070806435085562,-0.028486525258735518
S002,Fc6.,0.085152167230249,0.11507326570345322,-0.02992109847320422
S002,C5..,0.1126139973357926,0.13259555282303515,-0.01998155548724255
S002,C3..,0.08761143559790963,0.1140485705502613,-0.02643713495235167
S002,C1..,0.06793728865662466,0.08064350855620453,-0.012706219899579874
S002,Cz..,0.0863818014140793,0.08074597807152373,0.005635823342555579
S002,C2..,0.06650271544215595,0.08422994159237626,-0.017727226150220307
S002,C4..,0.08494722819961062,0.08843119172046317,-0.0034839635208525482
S002,C6..,0.0865867404447177,0.09765344809919049,-0.01106670765447279
S002,Cp5.,0.11548314376473,0.11507326570345322,0.00040987806127677773
S002,Cp3.,0.09703863100727533,0.1071831130238754,-0.010144482016600065
S002,Cp1.,0.12009427195409365,0.07521262424428732,0.044881647709806335
S002,Cpz.,0.10779793011579056,0.10246951531919254,0.005328414796598013
S002,Cp2.,0.10964238139153602,0.08914847832769751,0.02049390306383851
S002,Cp4.,0.12060661953068962,0.08084844758684291,0.039758171943846704
S002,Cp6.,0.1084127472077057,0.08289783789322676,0.025514909314478945
S002,Fp1.,0.062403934829388254,0.11927451583154011,-0.05687058100215186
S002,Fpz.,0.059842196946408445,0.10523619223281074,-0.04539399528640229
S002,Fp2.,0.06476073368172969,0.11322881442770776,-0.04846808074597807
S002,Af7.,0.06465826416641049,0.07849164873450148,-0.013833384568090995
S002,Af3.,0.02305564094681832,0.1209140280766472,-0.09785838712982887
S002,Afz.,0.032482836356184035,0.11824982067834819,-0.08576698432216415
S002,Af4.,0.0865867404447177,0.12122143662260478,-0.03463469617788707
S002,Af8.,0.11312634491238857,0.10677323496259862,0.006353109949789951
S002,F7..,0.09908802131365918,0.12716466851111793,-0.028076647197458754
S002,F5..,0.06752741059534788,0.1306486320319705,-0.06312122143662262
S002,F3..,0.0535915565119377,0.12439799159749974,-0.07080643508556204
S002,F1..,0.05338661748129931,0.11548314376473,-0.06209652628343069
S002,Fz..,0.06353109949789937,0.11210164975919663,-0.048570550261297266
S002,F2..,0.06762988011066708,0.11281893636643099,-0.045189056255763915
S002,F4..,0.06722000204939031,0.11117942412132391,-0.043959422071933596
S002,F6..,0.09048058202684701,0.0893534173583359,0.0011271646685111214
S002,F8..,0.027871708166820372,0.1329029613689927,-0.10503125320217234
S002,Ft7.,0.06158417870683472,0.12286094886771186,-0.06127677016087714
S002,Ft8.,0.09304231990982682,0.1302387539706937,-0.03719643406086688
S002,T7..,0.13351777846090787,0.13403012603750383,-0.0005123475765959618
S002,T8..,0.11507326570345322,0.14519930320729582,-0.0301260375038426
S002,T9..,0.06650271544215595,0.13823137616559072,-0.07172866072343477
S002,T10.,0.08586945383748334,0.14468695563069986,-0.058817501793216515
S002,Tp7.,0.14110052259452813,0.1305461625166513,0.010554360077876829
S002,Tp8.,0.11240905830515421,0.1072855825391946,0.0051234757659596175
S002,P7..,0.12747207705707553,0.11240905830515421,0.015063018751921314
S002,P5..,0.11302387539706937,0.11179424121323907,0.0012296341838303054
S002,P3..,0.11507326570345322,0.085152167230249,0.02992109847320422
S002,P1..,0.11210164975919663,0.07111384363151962,0.04098780612767701
S002,Pz..,0.10605594835536428,0.07398299006045701,0.032072958294907264
S002,P2..,0.12204119274515832,0.06394097755917615,0.05810021518598217
S002,P4..,0.11937698534685931,0.06967927041705092,0.04969771492980839
S002,P6..,0.10072753355876626,0.07726201455067118,0.023465519008095084
S002,P8..,0.12757454657239473,0.09048058202684701,0.03709396454554771
S002,Po7.,0.11517573521877242,0.09560405779280665,0.019571677425965772
S002,Po3.,0.11189671072855825,0.1044164361102572,0.007480274618301058
S002,Poz.,0.11066707654472795,0.0757249718208833,0.03494210472384465
S002,Po4.,0.12316835741366944,0.07244594733066913,0.05072241008300031
S002,Po8.,0.12009427195409365,0.09283738087918844,0.027256891074905212
S002,O1..,0.011374116200430372,0.10431396659493801,-0.09293985039450764
S002,Oz..,0.12378317450558458,0.11189671072855825,0.011886463777026332
S002,O2..,0.12573009529664925,0.10779793011579056,0.01793216518085869
S002,Iz..,0.12275847935239266,0.11374116200430372,0.009017317348088943
S003,Fc5.,0.0630187519213034,0.08259042934726919,-0.019571677425965786
S003,Fc3.,0.06168664822215391,0.0823854903166308,-0.020698842094476887
S003,Fc1.,0.059124910339174094,0.08976329541961267,-0.030638385080438577
S003,Fcz.,0.04939030638385081,0.08904600881237831,-0.039655702428527506
S003,Fc2.,0.04139768418895379,0.08925094784301671,-0.04785326365406292
S003,Fc4.,0.022338354339583973,0.08269289886258838,-0.0603545445230044
S003,Fc6.,0.02500256173788298,0.07941387437237422,-0.05441131263449124
S003,C5..,0.07449533763705297,0.08310277692386515,-0.00860743928681218
S003,C3..,0.07623731939747926,0.08750896608259043,-0.011271646685111172
S003,C1..,0.0755200327902449,0.09519417973152987,-0.01967414694128497
S003,Cz..,0.07746695358130956,0.09109539911876217,-0.013628445537452613
S003,C2..,0.07121631314683882,0.08207808177067323,-0.010861768623834409
S003,C4..,0.07613484988216006,0.07705707552003278,-0.0009222256378727256
S003,C6..,0.08586945383748334,0.06978173993237012,0.016087713905113224
S003,Cp5.,0.08300030740854596,0.0906855210574854,-0.00768521364893944
S003,Cp3.,0.06496567271236807,0.09488677118557229,-0.02992109847320422
S003,Cp1.,0.08412747207705708,0.09488677118557229,-0.01075929910851521
S003,Cpz.,0.08740649656727123,0.09539911876216825,-0.00799262219489702
S003,Cp2.,0.09007070396557024,0.08699661850599447,0.0030740854595757705
S003,Cp4.,0.07603238036684086,0.08709908802131366,-0.011066707654472804
S003,Cp6.,0.059432318885131674,0.059842196946408445,-0.0004098780612767708
S003,Fp1.,0.019161799364689005,0.08832872220514397,-0.06916692284045496
S003,Fpz.,0.016805000512347578,0.0893534173583359,-0.07254841684598831
S003,Fp2.,0.02869146428937391,0.07429039860641459,-0.04559893431704068
S003,Af7.,0.02377292755405267,0.08361512450046112,-0.059842196946408445
S003,Af3.,0.013628445537452608,0.0919151552413157,-0.07828670970386309
S003,Afz.,0.012193872322983912,0.08289783789322676,-0.07070396557024285
S003,Af4.,0.013525976022133415,0.07377805102981863,-0.060252075007685216
S003,Af8.,0.014653140690644533,0.07388052054513781,-0.05922737985449328
S003,F7..,0.014448201660006148,0.08197561225535403,-0.06752741059534789
S003,F5..,0.01526795778255969,0.08484475868429142,-0.06957680090173174
S003,F3..,0.01690747002766677,0.08832872220514397,-0.0714212521774772
S003,F1..,0.02295317143149913,0.08996823445025105,-0.06701506301875193
S003,Fz..,0.017112409058305154,0.0863818014140793,-0.06926939235577415
S003,F2..,0.011476585715749565,0.08597192335280254,-0.07449533763705297
S003,F4..,0.012706219899579875,0.08054103904088533,-0.06783481914130546
S003,F6..,0.010861768623834409,0.07203606926939235,-0.06117430064555794
S003,F8..,0.011476585715749565,0.0741879290910954,-0.06271134337534583
S003,Ft7.,0.04221744031150733,0.08463981965365304,-0.04242237934214571
S003,Ft8.,0.018342043242135463,0.07019161799364688,-0.05184957475151142
S003,T7..,0.08484475868429142,0.08986576493493185,-0.0050210062506404335
S003,T8..,0.08853366123578235,0.08361512450046112,0.004918536735321236
S003,T9..,0.0700891484783277,0.09878061276770161,-0.028691464289373914
S003,T10.,0.07111384363151962,0.07121631314683882,-0.0001024695153191979
S003,Tp7.,0.051747105236192234,0.09796085664514807,-0.04621375140895584
S003,Tp8.,0.07705707552003278,0.06578542883492161,0.011271646685111172
S003,P7..,0.06219899579874987,0.08955835638897428,-0.027359360590224403
S003,P5..,0.06394097755917615,0.08761143559790963,-0.02367045803873348
S003,P3..,0.08802131365918639,0.08576698432216416,0.002254329337022229
S003,P1..,0.07623731939747926,0.09406701506301875,-0.01782969566553949
S003,Pz..,0.07941387437237422,0.0810533866174813,-0.0016395122451070693
S003,P2..,0.0838200635310995,0.08095091710216211,0.0028691464289373886
S003,P4..,0.06568295931960241,0.08822625268982477,-0.02254329337022236
S003,P6..,0.07521262424428732,0.085152167230249,-0.009939542985961683
S003,P8..,0.0768521364893944,0.08740649656727123,-0.010554360077876829
S003,Po7.,0.07500768521364894,0.08699661850599447,-0.01198893329234553
S003,Po3.,0.0782867097038631,0.08925094784301671,-0.010964238139153606
S003,Poz.,0.08043856952556615,0.08607439286812173,-0.005635823342555579
S003,Po4.,0.09304231990982682,0.07531509375960652,0.017727226150220307
S003,Po8.,0.08566451480684496,0.08228302080131161,0.0033814940055333503
S003,O1..,0.08218055128599241,0.08156573419407726,0.0006148170919151597
S003,Oz..,0.08627933189876012,0.07459780715237217,0.01168152474638795
S003,O2..,0.08996823445025105,0.0673224715647095,0.022645762885541557
S003,Iz..,0.07388052054513781,0.08679167947535608,-0.01291115893021827
S004,Fc5.,0.00768521364893944,0.0932472589404652,-0.08556204529152577
S004,Fc3.,0.018239573726816272,0.03391740957065273,-0.015677835843836457
S004,Fc1.,0.029921098473204222,0.0757249718208833,-0.045803873347679075
S004,Fcz.,0.011066707654472794,0.08945588687365509,-0.0783891792191823
S004,Fc2.,0.010554360077876832,0.0893534173583359,-0.07879905728045906
S004,Fc4.,0.006967927041705093,0.08453735013833384,-0.07756942309662875
S004,Fc6.,0.006762988011066708,0.08617686238344092,-0.07941387437237421
S004,C5..,0.04723844656214776,0.07152372169279639,-0.024285275130648626
S004,C3..,0.055436007787683164,0.055948355364279126,-0.0005123475765959618
S004,C1..,0.03934829388256993,0.08494722819961062,-0.045598934317040686
S004,Cz..,0.044574239163848756,0.09837073470642484,-0.05379649554257608
S004,C2..,0.030126037503842608,0.09621887488472179,-0.06609283738087918
S004,C4..,0.02817911671277795,0.0837175940157803,-0.05553847730300235
S004,C6..,0.022440823854903168,0.08740649656727123,-0.06496567271236806
S004,Cp5.,0.05523106875704478,0.07920893534173583,-0.023977866584691046
S004,Cp3.,0.05482119069576801,0.08341018546982273,-0.028588994774054723
S004,Cp1.,0.047853263654062915,0.08627933189876012,-0.03842606824469721
S004,Cpz.,0.06414591658981453,0.08617686238344092,-0.022030945793626397
S004,Cp2.,0.05728045906342863,0.08914847832769751,-0.03186801926426888
S004,Cp4.,0.06599036786555999,0.07275335587662671,-0.0067629880110667145
S004,Cp6.,0.02510503125320217,0.06752741059534788,-0.04242237934214571
S004,Fp1.,0.05523106875704478,0.08699661850599447,-0.031765549748949684
S004,Fpz.,0.05523106875704478,0.0946818321549339,-0.039450763397889124
S004,Fp2.,0.059124910339174094,0.07972128291833179,-0.020596372579157696
S004,Af7.,0.06547802028896403,0.08054103904088533,-0.0150630187519213
S004,Af3.,0.04939030638385081,0.09550158827748745,-0.04611128189363664
S004,Afz.,0.01209140280766472,0.07797930115790552,-0.06588789835024081
S004,Af4.,0.028793933804693105,0.04621375140895584,-0.017419817604262734
S004,Af8.,0.08187314274003483,0.032585305871503226,0.04928783686853161
S004,F7..,0.035761860846398194,0.07306076442258429,-0.03729890357618609
S004,F5..,0.028793933804693105,0.07931140485705503,-0.05051747105236192
S004,F3..,0.01127164668511118,0.07613484988216006,-0.06486320319704889
S004,F1..,0.00768521364893944,0.08771390511322881,-0.08002869146428937
S004,Fz..,0.006353109949789938,0.09806332616046726,-0.09171021621067732
S004,F2..,0.0071728660723434775,0.08627933189876012,-0.07910646582641664
S004,F4..,0.007377805102981863,0.0839225330464187,-0.07654472794343684
S004,F6..,0.023977866584691053,0.06558048980428323,-0.041602623219592176
S004,F8..,0.027974177682139563,0.05820268470130136,-0.0302285070191618
S004,Ft7.,0.014243262629367762,0.09457936263961471,-0.08033610001024695
S004,Ft8.,0.03750384260682447,0.06107183113023876,-0.02356798852341429
S004,T7..,0.026847013013628445,0.08679167947535608,-0.059944666461727636
S004,T8..,0.010656829593196025,0.0850496977149298,-0.07439286812173378
S004,T9..,0.040577928066400246,0.09007070396557024,-0.04949277589916999
S004,T10.,0.05810021518598217,0.05717798954810944,0.0009222256378727325
S004,Tp7.,0.07295829490726509,0.08802131365918639,-0.0150630187519213
S004,Tp8.,0.05021006250640434,0.07808177067322472,-0.02787170816682038
S004,P7..,0.04939030638385081,0.06947433138641254,-0.020084025002561734
S004,P5..,0.03822112921405882,0.07941387437237422,-0.041192745158315405
S004,P3..,0.08187314274003483,0.0907879905728046,-0.00891484783276976
S004,P1..,0.048468080745978075,0.0932472589404652,-0.04477917819448713
S004,Pz..,0.04990265396044677,0.09519417973152987,-0.0452915257710831
S004,P2..,0.059842196946408445,0.05676811148683267,0.0030740854595757774
S004,P4..,0.04611128189363664,0.04754585510810534,-0.0014345732144687012
S004,P6..,0.0687570447791782,0.09273491136386924,-0.023977866584691046
S004,P8..,0.06342862998258018,0.09160774669535814,-0.028179116712777952
S004,Po7.,0.07152372169279639,0.08761143559790963,-0.016087713905113238
S004,Po3.,0.06537555077364485,0.09355466748642279,-0.028179116712777938
S004,Poz.,0.07029408750896608,0.09232503330259248,-0.022030945793626397
S004,Po4.,0.06035454452300441,0.08925094784301671,-0.028896403320012302
S004,Po8.,0.07367558151449943,0.08556204529152577,-0.011886463777026332
S004,O1..,0.07398299006045701,0.08843119172046317,-0.014448201660006155
S004,Oz..,0.07080643508556204,0.09109539911876217,-0.02028896403320013
S004,O2..,0.08556204529152577,0.08597192335280254,-0.00040987806127677773
S004,Iz..,0.08228302080131161,0.0919151552413157,-0.00963213444000409
S005,Fc5.,0.08617686238344092,0.08259042934726919,0.0035864330361717323
S005,Fc3.,0.08433241110769546,0.08750896608259043,-0.0031765549748949684
S005,Fc1.,0.060252075007685216,0.05246439184342658,0.007787683164258638
S005,Fcz.,0.06414591658981453,0.05840762373193975,0.005738292857874777
S005,Fc2.,0.056153294394917515,0.0838200635310995,-0.027666769136181983
S005,Fc4.,0.07183113023875397,0.07357311199918025,-0.001741981760426281
S005,Fc6.,0.07664719745875602,0.07521262424428732,0.0014345732144687012
S005,C5..,0.07193359975407317,0.07060149605492366,0.0013321036991495033
S005,C3..,0.052156983297469005,0.052054513782149814,0.00010246951531919096
S005,C1..,0.06281381289066502,0.0687570447791782,-0.005943231888513173
S005,Cz..,0.0590224408238549,0.05932984936981248,-0.0003074085459575798
S005,C2..,0.08566451480684496,0.08576698432216416,-0.0001024695153191979
S005,C4..,0.048570550261297266,0.04980018444512758,-0.0012296341838303124
S005,C6..,0.07931140485705503,0.08351265498514192,-0.004201250128086892
S005,Cp5.,0.10369914950302285,0.11507326570345322,-0.01137411620043037
S005,Cp3.,0.05236192232810739,0.05246439184342658,-0.00010246951531919096
S005,Cp1.,0.059534788400450865,0.05861256276257813,0.0009222256378727325
S005,Cpz.,0.051542166205553845,0.052566861358745776,-0.0010246951531919304
S005,Cp2.,0.05000512347576596,0.05000512347576596,0.0
S005,Cp4.,0.05102981862895788,0.05236192232810739,-0.0013321036991495033
S005,Cp6.,0.09714110052259453,0.09427195409365714,0.0028691464289373886
S005,Fp1.,0.055743416333640744,0.05605082487959832,-0.0003074085459575729
S005,Fpz.,0.05820268470130136,0.04939030638385081,0.008812378317450555
S005,Fp2.,0.07674966697407522,0.054718721180448814,0.022030945793626404
S005,Af7.,0.08125832564811969,0.07449533763705297,0.0067629880110667145
S005,Af3.,0.0673224715647095,0.06189158725279229,0.005430884311917204
S005,Afz.,0.06640024592683677,0.0590224408238549,0.007377805102981867
S005,Af4.,0.09386207603238036,0.0673224715647095,0.02653960446767087
S005,Af8.,0.10492878368685316,0.059637257915770056,0.0452915257710831
S005,F7..,0.08627933189876012,0.09140280766471974,-0.0051234757659596175
S005,F5..,0.08197561225535403,0.08330771595450354,-0.0013321036991495033
S005,F3..,0.08023363049492777,0.08812378317450559,-0.007890152679577822
S005,F1..,0.07449533763705297,0.06148170919151552,0.013013628445537453
S005,Fz..,0.06588789835024081,0.05307920893534174,0.012808689414899072
S005,F2..,0.06660518495747515,0.05523106875704478,0.01137411620043037
S005,F4..,0.08023363049492777,0.06332616046726099,0.01690747002766678
S005,F6..,0.09714110052259453,0.06916692284045496,0.02797417768213957
S005,F8..,0.11691771697919869,0.08023363049492777,0.03668408648427092
S005,Ft7.,0.08156573419407726,0.07633978891279844,0.005225945281278815
S005,Ft8.,0.0467260989855518,0.03996311097448509,0.006762988011066708
S005,T7..,0.0920176247566349,0.07992622194897019,0.012091402807664714
S005,T8..,0.06588789835024081,0.06547802028896403,0.00040987806127677773
S005,T9..,0.06127677016087714,0.05728045906342863,0.00399631109744851
S005,T10.,0.08197561225535403,0.0714212521774772,0.010554360077876829
S005,Tp7.,0.09119786863408136,0.0921200942719541,-0.0009222256378727395
S005,Tp8.,0.05502612972640639,0.05410390408853366,0.0009222256378727325
S005,P7..,0.07674966697407522,0.07254841684598831,0.004201250128086906
S005,P5..,0.08556204529152577,0.08228302080131161,0.0032790244902141524
S005,P3..,0.05277180038938416,0.05420637360385285,-0.0014345732144686943
S005,P1..,0.007992622194897018,0.06650271544215595,-0.058510093247258935
S005,Pz..,0.05840762373193975,0.059637257915770056,-0.0012296341838303054
S005,P2..,0.052259452812788196,0.055743416333640744,-0.0034839635208525482
S005,P4..,0.0535915565119377,0.05430884311917205,-0.0007172866072343506
S005,P6..,0.08115585613280049,0.08320524643918434,-0.002049390306383847
S005,P8..,0.07459780715237217,0.07664719745875602,-0.002049390306383847
S005,Po7.,0.0755200327902449,0.07664719745875602,-0.0011271646685111214
S005,Po3.,0.0631212214366226,0.06476073368172969,-0.0016395122451070832
S005,Poz.,0.09099292960344298,0.09775591761450968,-0.006762988011066701
S005,Po4.,0.051952044266830616,0.05338661748129931,-0.0014345732144686943
S005,Po8.,0.0893534173583359,0.08556204529152577,0.003791372066810128
S005,O1..,0.07295829490726509,0.08289783789322676,-0.009939542985961669
S005,Oz..,0.06547802028896403,0.06814222768726304,-0.0026642073982990067
S005,O2..,0.04908289783789323,0.051132288144277074,-0.002049390306383847
S005,Iz..,0.10503125320217235,0.09970283840557434,0.005328414796598013
S006,Fc5.,0.10974485090685521,0.12665232093452197,-0.016907470027666766
S006,Fc3.,0.048570550261297266,0.12183625371451993,-0.07326570345322267
S006,Fc1.,0.04734091607746695,0.1209140280766472,-0.07357311199918024
S006,Fcz.,0.035761860846398194,0.1168152474638795,-0.08105338661748131
S006,Fc2.,0.02694948252894764,0.12337329644430782,-0.09642381391536017
S006,Fc4.,0.02623219592171329,0.12245107080643508,-0.09621887488472179
S006,Fc6.,0.04949277589917,0.13208320524643918,-0.08259042934726918
S006,C5..,0.09232503330259248,0.11497079618813404,-0.022645762885541557
S006,C3..,0.09539911876216825,0.11824982067834819,-0.02285070191617994
S006,C1..,0.06281381289066502,0.118147351163029,-0.05533353827236398
S006,Cz..,0.0535915565119377,0.11640536940260272,-0.06281381289066502
S006,C2..,0.051132288144277074,0.11968439389281689,-0.06855210574853982
S006,C4..,0.08248795983195,0.11947945486217851,-0.03699149503022851
S006,C6..,0.11210164975919663,0.126139973357926,-0.014038323598729377
S006,Cp5.,0.10359667998770365,0.11579055231068756,-0.012193872322983912
S006,Cp3.,0.09734603955323291,0.1209140280766472,-0.023567988523414282
S006,Cp1.,0.09816579567578645,0.12111896710728558,-0.022953171431499123
S006,Cpz.,0.11302387539706937,0.11824982067834819,-0.005225945281278815
S006,Cp2.,0.08720155753663285,0.12132390613792397,-0.034122348601291125
S006,Cp4.,0.08904600881237831,0.12050415001537043,-0.03145814120299212
S006,Cp6.,0.09662875294599857,0.11435597909621888,-0.017727226150220307
S006,Fp1.,0.014345732144686955,0.12818936366430986,-0.1138436315196229
S006,Fpz.,0.013423506506814223,0.1139461010349421,-0.10052259452812788
S006,Fp2.,0.013833384568090993,0.11466338764217646,-0.10083000307408546
S006,Af7.,0.014858079721282919,0.1357721077979301,-0.1209140280766472
S006,Af3.,0.015063018751921304,0.1374116200430372,-0.1223486012911159
S006,Afz.,0.014448201660006148,0.11783994261707142,-0.10339174095706527
S006,Af4.,0.013935854083410186,0.13823137616559072,-0.12429552208218053
S006,Af8.,0.014858079721282919,0.1401782969566554,-0.12532021723537248
S006,F7..,0.020084025002561737,0.1349523516753766,-0.11486832667281485
S006,F5..,0.019059329849369814,0.12296341838303104,-0.10390408853366123
S006,F3..,0.01895686033405062,0.1222461317757967,-0.10328927144174607
S006,F1..,0.018239573726816272,0.12029921098473204,-0.10205963725791577
S006,Fz..,0.018239573726816272,0.12204119274515832,-0.10380161901834205
S006,F2..,0.0178296956655395,0.12204119274515832,-0.10421149707961881
S006,F4..,0.0178296956655395,0.12070908904600881,-0.10287939338046931
S006,F6..,0.01700993954298596,0.1307511015472897,-0.11374116200430373
S006,F8..,0.017932165180858696,0.12849677221026745,-0.11056460702940876
S006,Ft7.,0.1057485398094067,0.10564607029408751,0.00010246951531918402
S006,Ft8.,0.09898555179834,0.12706219899579874,-0.02807664719745874
S006,T7..,0.101649759196639,0.1307511015472897,-0.02910134235065069
S006,T8..,0.0933497284557844,0.1279844246336715,-0.03463469617788709
S006,T9..,0.12398811353622298,0.12859924172558665,-0.00461112818936367
S006,T10.,0.10492878368685316,0.1330054308843119,-0.028076647197458754
S006,Tp7.,0.1306486320319705,0.13146838815452402,-0.0008197561225535277
S006,Tp8.,0.09744850906855211,0.12829183317962906,-0.030843324111076945
S006,P7..,0.12255354032175428,0.12470540014345732,-0.002151859821703045
S006,P5..,0.12152884516856235,0.12562762578133005,-0.004098780612767694
S006,P3..,0.09980530792089354,0.12019674146941285,-0.020391433548519314
S006,P1..,0.09796085664514807,0.12050415001537043,-0.02254329337022236
S006,Pz..,0.1057485398094067,0.11927451583154011,-0.013525976022133415
S006,P2..,0.09488677118557229,0.05277180038938416,0.04211497079618813
S006,P4..,0.11210164975919663,0.12163131468388154,-0.009529664924684905
S006,P6..,0.11138436315196229,0.12173378419920074,-0.010349421047238447
S006,P8..,0.09765344809919049,0.12849677221026745,-0.03084332411107696
S006,Po7.,0.11978686340813607,0.1250128086894149,-0.005225945281278815
S006,Po3.,0.11722512552515627,0.12542268675069168,-0.008197561225535416
S006,Poz.,0.10820780817706732,0.11312634491238857,-0.0049185367353212495
S006,Po4.,0.1098473204221744,0.12450046111281894,-0.014653140690644537
S006,Po8.,0.1098473204221744,0.12470540014345732,-0.014858079721282919
S006,O1..,0.11743006455579465,0.12460293062813813,-0.007172866072343478
S006,Oz..,0.10472384465621477,0.11363869248898453,-0.00891484783276976
S006,O2..,0.09785838712982887,0.12245107080643508,-0.024592683676606206
S006,Iz..,0.12685725996516037,0.13280049185367354,-0.005943231888513173
S007,Fc5.,0.07849164873450148,0.09406701506301875,-0.015575366328517262
S007,Fc3.,0.07644225842811764,0.09365713700174198,-0.017214878573624345
S007,Fc1.,0.08248795983195,0.09263244184855006,-0.010144482016600065
S007,Fcz.,0.08197561225535403,0.08904600881237831,-0.0070703965570242805
S007,Fc2.,0.08248795983195,0.08966082590429347,-0.007172866072343478
S007,Fc4.,0.08300030740854596,0.08781637462854801,-0.0048160672200020516
S007,Fc6.,0.07869658776513987,0.07787683164258632,0.0008197561225535416
S007,C5..,0.09673122246131775,0.09171021621067732,0.0050210062506404335
S007,C3..,0.08945588687365509,0.09539911876216825,-0.005943231888513159
S007,C1..,0.08535710626088738,0.09314478942514602,-0.007787683164258638
S007,Cz..,0.08802131365918639,0.09703863100727533,-0.009017317348088943
S007,C2..,0.08269289886258838,0.08925094784301671,-0.006558048980428333
S007,C4..,0.08300030740854596,0.08894353929705913,-0.005943231888513173
S007,C6..,0.09355466748642279,0.07756942309662876,0.015985244389794026
S007,Cp5.,0.08863613075110155,0.09847320422174403,-0.009837073470642485
S007,Cp3.,0.08730402705195205,0.09765344809919049,-0.010349421047238447
S007,Cp1.,0.08812378317450559,0.10134235065068142,-0.013218567476175835
S007,Cpz.,0.08463981965365304,0.10134235065068142,-0.016702530997028384
S007,Cp2.,0.08259042934726919,0.09089046008812378,-0.008300030740854586
S007,Cp4.,0.08330771595450354,0.09242750281791168,-0.009119786863408141
S007,Cp6.,0.07449533763705297,0.0810533866174813,-0.006558048980428319
S007,Fp1.,0.02817911671277795,0.07511015472896813,-0.04693103801619018
S007,Fpz.,0.03442975714724869,0.07890152679577826,-0.04447176964852957
S007,Fp2.,0.033200122963418385,0.08013116097960857,-0.04693103801619018
S007,Af7.,0.027974177682139563,0.0768521364893944,-0.04887795880725484
S007,Af3.,0.03412234860129112,0.08095091710216211,-0.04682856850087099
S007,Afz.,0.036786555999590125,0.08914847832769751,-0.05236192232810739
S007,Af4.,0.036479147453632545,0.08177067322471565,-0.045291525771083106
S007,Af8.,0.040475458551081055,0.08259042934726919,-0.04211497079618814
S007,F7..,0.04580387334767907,0.0906855210574854,-0.04488164770980633
S007,F5..,0.04641869043959422,0.09160774669535814,-0.045189056255763915
S007,F3..,0.05277180038938416,0.08474228916897224,-0.03197048877958808
S007,F1..,0.05123475765959627,0.0864842709293985,-0.03524951326980223
S007,Fz..,0.04887795880725484,0.08863613075110155,-0.03975817194384671
S007,F2..,0.05102981862895788,0.08556204529152577,-0.03453222666256788
S007,F4..,0.044471769648529565,0.0893534173583359,-0.04488164770980633
S007,F6..,0.08043856952556615,0.08668920996003689,-0.006250640434470739
S007,F8..,0.044984117225125526,0.08474228916897224,-0.03975817194384671
S007,Ft7.,0.09119786863408136,0.09130033814940056,-0.0001024695153191979
S007,Ft8.,0.06588789835024081,0.068654575263859,-0.0027666769136181907
S007,T7..,0.1251152782047341,0.10892509478430167,0.016190183420432422
S007,T8..,0.09775591761450968,0.07838917921918229,0.01936673839532739
S007,T9..,0.08617686238344092,0.08740649656727123,-0.0012296341838303054
S007,T10.,0.03145814120299211,0.03145814120299211,0.0
S007,Tp7.,0.08771390511322881,0.09375960651706118,-0.006045701403832371
S007,Tp8.,0.06937186187109334,0.035761860846398194,0.03361000102469515
S007,P7..,0.08576698432216416,0.09714110052259453,-0.01137411620043037
S007,P5..,0.08802131365918639,0.09960036889025516,-0.011579055231068766
S007,P3..,0.08904600881237831,0.09908802131365918,-0.010042012501280867
S007,P1..,0.0906855210574854,0.09744850906855211,-0.0067629880110667145
S007,Pz..,0.08822625268982477,0.0975509785838713,-0.009324725894046523
S007,P2..,0.08679167947535608,0.09744850906855211,-0.010656829593196027
S007,P4..,0.08925094784301671,0.09652628343067937,-0.007275335587662662
S007,P6..,0.08146326467875807,0.09263244184855006,-0.011169177169791988
S007,P8..,0.0700891484783277,0.08351265498514192,-0.013423506506814217
S007,Po7.,0.09406701506301875,0.09765344809919049,-0.003586433036171746
S007,Po3.,0.09048058202684701,0.09908802131365918,-0.008607439286812166
S007,Poz.,0.09130033814940056,0.10400655804898043,-0.012706219899579874
S007,Po4.,0.08545957577620658,0.09642381391536017,-0.010964238139153593
S007,Po8.,0.0852546367455682,0.10103494210472384,-0.015780305359155644
S007,O1..,0.09130033814940056,0.09908802131365918,-0.007787683164258624
S007,Oz..,0.09960036889025516,0.09878061276770161,0.0008197561225535416
S007,O2..,0.08976329541961267,0.10113741162004304,-0.01137411620043037
S007,Iz..,0.09560405779280665,0.10236704580387335,-0.006762988011066701
S008,Fc5.,0.06158417870683472,0.04221744031150733,0.01936673839532739
S008,Fc3.,0.058715032277897324,0.044574239163848756,0.014140793114048568
S008,Fc1.,0.05932984936981248,0.04221744031150733,0.017112409058305154
S008,Fcz.,0.06824469720258224,0.04641869043959422,0.021826006762988015
S008,Fc2.,0.06424838610513373,0.04641869043959422,0.017829695665539505
S008,Fc4.,0.06496567271236807,0.04559893431704068,0.01936673839532739
S008,Fc6.,0.07152372169279639,0.037196434060866895,0.03432728763192949
S008,C5..,0.05728045906342863,0.04231990982682652,0.01496054923660211
S008,C3..,0.060252075007685216,0.05687058100215186,0.0033814940055333573
S008,C1..,0.06814222768726304,0.05389896505789528,0.014243262629367759
S008,Cz..,0.051849574751511425,0.059637257915770056,-0.007787683164258631
S008,C2..,0.05031253202172354,0.05051747105236192,-0.00020493903063838192
S008,C4..,0.04354954401065683,0.051439696690234654,-0.007890152679577822
S008,C6..,0.08289783789322676,0.0590224408238549,0.023875397069371855
S008,Cp5.,0.0850496977149298,0.05687058100215186,0.028179116712777945
S008,Cp3.,0.052054513782149814,0.06168664822215391,-0.009632134440004096
S008,Cp1.,0.05820268470130136,0.06486320319704887,-0.00666051849574751
S008,Cpz.,0.05021006250640434,0.06568295931960241,-0.015472896813198071
S008,Cp2.,0.052259452812788196,0.06701506301875192,-0.01475561020596372
S008,Cp4.,0.05430884311917205,0.06424838610513373,-0.009939542985961676
S008,Cp6.,0.05697305051747105,0.04959524541448919,0.00737780510298186
S008,Fp1.,0.05707552003279025,0.06342862998258018,-0.006353109949789937
S008,Fpz.,0.0453939952864023,0.06486320319704887,-0.019469207910646574
S008,Fp2.,0.041295214673634596,0.06117430064555795,-0.019879085971923352
S008,Af7.,0.06691259350343273,0.06404344707449534,0.0028691464289373886
S008,Af3.,0.05502612972640639,0.06086689209960037,-0.005840762373193975
S008,Afz.,0.03904088533661236,0.056255763910236706,-0.017214878573624345
S008,Af4.,0.05707552003279025,0.06363356901321857,-0.006558048980428319
S008,Af8.,0.06752741059534788,0.06558048980428323,0.001946920791064649
S008,F7..,0.04600881237831745,0.0590224408238549,-0.013013628445537453
S008,F5..,0.0205963725791577,0.03904088533661236,-0.01844451275745466
S008,F3..,0.019879085971923352,0.040270519520442666,-0.020391433548519314
S008,F1..,0.020801311609796085,0.03801619018342043,-0.017214878573624345
S008,Fz..,0.021928476278307203,0.03945076339788913,-0.01752228711958193
S008,F2..,0.03463469617788708,0.03965570242852751,-0.0050210062506404335
S008,F4..,0.03514704375448304,0.040577928066400246,-0.005430884311917204
S008,F6..,0.036274208422994156,0.043856952556614405,-0.007582744133620249
S008,F8..,0.040168050005123475,0.058715032277897324,-0.01854698227277385
S008,Ft7.,0.08453735013833384,0.05277180038938416,0.031765549748949684
S008,Ft8.,0.014960549236602111,0.04313966594938006,-0.028179116712777952
S008,T7..,0.05820268470130136,0.07982375243365099,-0.021621067732349626
S008,T8..,0.0823854903166308,0.05164463572087304,0.030740854595757754
S008,T9..,0.06004713597704683,0.04877548929193565,0.01127164668511118
S008,T10.,0.07193359975407317,0.08269289886258838,-0.01075929910851521
S008,Tp7.,0.09314478942514602,0.07111384363151962,0.022030945793626397
S008,Tp8.,0.05789527615534378,0.05133722717491546,0.006558048980428319
S008,P7..,0.08904600881237831,0.07736448406599036,0.01168152474638795
S008,P5..,0.07920893534173583,0.07480274618301055,0.004406189158725274
S008,P3..,0.07152372169279639,0.06271134337534584,0.008812378317450548
S008,P1..,0.07982375243365099,0.07080643508556204,0.009017317348088943
S008,Pz..,0.06783481914130546,0.07111384363151962,-0.0032790244902141663
S008,P2..,0.06486320319704887,0.06670765447279435,-0.001844451275745479
S008,P4..,0.06476073368172969,0.06947433138641254,-0.004713597704682854
S008,P6..,0.06383850804385695,0.06711753253407111,-0.0032790244902141663
S008,P8..,0.07674966697407522,0.06158417870683472,0.015165488267240498
S008,Po7.,0.08463981965365304,0.06896198380981658,0.01567783584383646
S008,Po3.,0.07183113023875397,0.06783481914130546,0.00399631109744851
S008,Poz.,0.07920893534173583,0.06916692284045496,0.010042012501280867
S008,Po4.,0.06148170919151552,0.07275335587662671,-0.011271646685111186
S008,Po8.,0.07265088636130751,0.06814222768726304,0.004508658674044472
S008,O1..,0.0907879905728046,0.07859411824982068,0.012193872322983912
S008,Oz..,0.07900399631109745,0.07480274618301055,0.004201250128086892
S008,O2..,0.07029408750896608,0.05676811148683267,0.013525976022133415
S008,Iz..,0.09416948457833794,0.07808177067322472,0.016087713905113224
S009,Fc5.,0.0674249410800287,0.12829183317962906,-0.06086689209960036
S009,Fc3.,0.06199405676811149,0.13259555282303515,-0.07060149605492366
S009,Fc1.,0.06127677016087714,0.12378317450558458,-0.06250640434470744
S009,Fcz.,0.06691259350343273,0.12193872322983912,-0.055026129726406386
S009,Fc2.,0.09007070396557024,0.13966594938005944,-0.0495952454144892
S009,Fc4.,0.1140485705502613,0.14366226047750794,-0.02961368992724664
S009,Fc6.,0.14642893739112614,0.13362024797622707,0.012808689414899072
S009,C5..,0.10216210677323496,0.12122143662260478,-0.01905932984936981
S009,C3..,0.04867301977661646,0.12296341838303104,-0.07429039860641459
S009,C1..,0.0906855210574854,0.1140485705502613,-0.0233630494927759
S009,Cz..,0.10052259452812788,0.1236807049902654,-0.02315811046213752
S009,C2..,0.10974485090685521,0.13905113228814428,-0.029306281381289073
S009,C4..,0.12255354032175428,0.1415104006558049,-0.018956860334050613
S009,C6..,0.14038323598729377,0.14120299210984733,-0.0008197561225535555
S009,Cp5.,0.12409058305154216,0.12931652833282098,-0.005225945281278815
S009,Cp3.,0.11743006455579465,0.1141510400655805,0.0032790244902141524
S009,Cp1.,0.10872015575366328,0.11333128394302695,-0.00461112818936367
S009,Cpz.,0.09529664924684907,0.09960036889025516,-0.00430371964340609
S009,Cp2.,0.12204119274515832,0.11240905830515421,0.009632134440004103
S009,Cp4.,0.12152884516856235,0.12122143662260478,0.0003074085459575798
S009,Cp6.,0.13444000409878062,0.12941899784814018,0.005021006250640447
S009,Fp1.,0.02694948252894764,0.12439799159749974,-0.0974485090685521
S009,Fpz.,0.029613689927246643,0.09847320422174403,-0.0688595142944974
S009,Fp2.,0.02500256173788298,0.09919049082897838,-0.0741879290910954
S009,Af7.,0.04211497079618813,0.12993134542473614,-0.08781637462854801
S009,Af3.,0.027256891074905216,0.13618198585920688,-0.10892509478430167
S009,Afz.,0.027564299620862792,0.11548314376473,-0.0879188441438672
S009,Af4.,0.05000512347576596,0.1440721385387847,-0.09406701506301873
S009,Af8.,0.06476073368172969,0.09734603955323291,-0.032585305871503226
S009,F7..,0.036171738907674965,0.12952146736345937,-0.0933497284557844
S009,F5..,0.09437442360897633,0.1375140895583564,-0.04313966594938007
S009,F3..,0.030126037503842608,0.12593503432728764,-0.09580899682344504
S009,F1..,0.029203811865969875,0.12552515626601085,-0.09632134440004098
S009,Fz..,0.03371247054001435,0.12849677221026745,-0.0947843016702531
S009,F2..,0.04354954401065683,0.13679680295112204,-0.0932472589404652
S009,F4..,0.04734091607746695,0.13679680295112204,-0.08945588687365508
S009,F6..,0.1307511015472897,0.15554872425453428,-0.024797622707244588
S009,F8..,0.11589302182600676,0.12521774772005329,-0.009324725894046523
S009,Ft7.,0.048263141715339686,0.13566963828261092,-0.08740649656727123
S009,Ft8.,0.11722512552515627,0.15011783994261707,-0.032892714417460805
S009,T7..,0.1331079003996311,0.14827338866687162,-0.015165488267240512
S009,T8..,0.1469412849677221,0.11148683266728149,0.035454452300440614
S009,T9..,0.09908802131365918,0.134644943129419,-0.03555692181575981
S009,T10.,0.13157085766984322,0.1277794856030331,0.003791372066810128
S009,Tp7.,0.13689927246644124,0.14048570550261297,-0.0035864330361717323
S009,Tp8.,0.1417153396864433,0.1303412234860129,0.011374116200430384
S009,P7..,0.13884619325750588,0.13146838815452402,0.00737780510298186
S009,P5..,0.11384363151962291,0.10882262526898248,0.0050210062506404335
S009,P3..,0.10964238139153602,0.09017317348088943,0.019469207910646588
S009,P1..,0.1071831130238754,0.06844963623322062,0.03873347679065478
S009,Pz..,0.10738805205451378,0.11445844861153806,-0.0070703965570242805
S009,P2..,0.11302387539706937,0.09806332616046726,0.014960549236602116
S009,P4..,0.11497079618813404,0.11589302182600676,-0.0009222256378727256
S009,P6..,0.09427195409365714,0.09283738087918844,0.0014345732144687012
S009,P8..,0.10738805205451378,0.11630289988728354,-0.00891484783276976
S009,Po7.,0.12450046111281894,0.12204119274515832,0.0024592683676606247
S009,Po3.,0.10226457628855415,0.09857567373706322,0.00368890255149093
S009,Poz.,0.08259042934726919,0.09949789937493596,-0.016907470027666766
S009,Po4.,0.10964238139153602,0.1070806435085562,0.0025617378829798226
S009,Po8.,0.12665232093452197,0.10667076544727944,0.019981555487242536
S009,O1..,0.10564607029408751,0.11025719848345117,-0.004611128189363656
S009,Oz..,0.11568808279536838,0.0975509785838713,0.018137104211497085
S009,O2..,0.11548314376473,0.11343375345834614,0.002049390306383861
S009,Iz..,0.12296341838303104,0.1072855825391946,0.015677835843836446
S010,Fc5.,0.06465826416641049,0.059842196946408445,0.004816067220002045
S010,Fc3.,0.06476073368172969,0.05810021518598217,0.006660518495747517
S010,Fc1.,0.06281381289066502,0.06650271544215595,-0.00368890255149093
S010,Fcz.,0.05010759299108515,0.059124910339174094,-0.009017317348088943
S010,Fc2.,0.05348908699661851,0.06014960549236602,-0.00666051849574751
S010,Fc4.,0.0700891484783277,0.06824469720258224,0.001844451275745465
S010,Fc6.,0.03555692181575981,0.03801619018342043,-0.002459268367660618
S010,C5..,0.07849164873450148,0.07326570345322267,0.005225945281278815
S010,C3..,0.055845885848959935,0.04139768418895379,0.014448201660006148
S010,C1..,0.05932984936981248,0.07859411824982068,-0.0192642688800082
S010,Cz..,0.06834716671790142,0.07500768521364894,-0.006660518495747517
S010,C2..,0.06035454452300441,0.06578542883492161,-0.005430884311917204
S010,C4..,0.05810021518598217,0.05123475765959627,0.006865457526385899
S010,C6..,0.07787683164258632,0.05728045906342863,0.020596372579157696
S010,Cp5.,0.058715032277897324,0.051952044266830616,0.006762988011066708
S010,Cp3.,0.048980428322574036,0.04764832462342453,0.0013321036991495033
S010,Cp1.,0.07224100830003075,0.09406701506301875,-0.021826006762988
S010,Cpz.,0.06260887386002664,0.055743416333640744,0.006865457526385899
S010,Cp2.,0.0563582334255559,0.06137923967619633,-0.0050210062506404335
S010,Cp4.,0.07664719745875602,0.0919151552413157,-0.015267957782559682
S010,Cp6.,0.06486320319704887,0.058715032277897324,0.006148170919151548
S010,Fp1.,0.08177067322471565,0.03483963520852546,0.04693103801619019
S010,Fpz.,0.06086689209960037,0.025207500768521365,0.035659391331079
S010,Fp2.,0.06404344707449534,0.03381494005533354,0.030228507019161806
S010,Af7.,0.0796188134030126,0.036376677938313354,0.04324213546469925
S010,Af3.,0.07767189261194794,0.035761860846398194,0.04191003176554975
S010,Afz.,0.06373603852853776,0.027871708166820372,0.03586433036171739
S010,Af4.,0.10564607029408751,0.036889025514909315,0.0687570447791782
S010,Af8.,0.07347064248386105,0.03401987908597192,0.03945076339788913
S010,F7..,0.059944666461727636,0.02418280561532944,0.035761860846398194
S010,F5..,0.07982375243365099,0.02899887283533149,0.050824879598319495
S010,F3..,0.062403934829388254,0.03760631212214366,0.024797622707244595
S010,F1..,0.05102981862895788,0.036581616968951736,0.014448201660006148
S010,Fz..,0.08207808177067323,0.048160672200020495,0.033917409570652736
S010,F2..,0.07244594733066913,0.04293472691874167,0.029511220411927455
S010,F4..,0.06014960549236602,0.03801619018342043,0.022133415308945588
S010,F6..,0.08187314274003483,0.04313966594938006,0.038733476790654774
S010,F8..,0.059124910339174094,0.040065580489804284,0.01905932984936981
S010,Ft7.,0.05687058100215186,0.04518905625576391,0.01168152474638795
S010,Ft8.,0.06096936161491956,0.05277180038938416,0.008197561225535402
S010,T7..,0.07408545957577621,0.040987806127677016,0.033097653448099194
S010,T8..,0.07459780715237217,0.03832359872937801,0.03627420842299416
S010,T9..,0.08166820370939645,0.0576903371247054,0.023977866584691053
S010,T10.,0.03924582436725074,0.03473716569320627,0.004508658674044472
S010,Tp7.,0.05799774567066298,0.03914335485193155,0.01885439081873143
S010,Tp8.,0.0411927451583154,0.032072958294907264,0.009119786863408134
S010,P7..,0.04754585510810534,0.04723844656214776,0.0003074085459575798
S010,P5..,0.06271134337534584,0.05789527615534378,0.0048160672200020585
S010,P3..,0.05748539809406702,0.07367558151449943,-0.016190183420432415
S010,P1..,0.07972128291833179,0.09058305154216621,-0.010861768623834422
S010,Pz..,0.08177067322471565,0.09355466748642279,-0.011783994261707134
S010,P2..,0.07726201455067118,0.09140280766471974,-0.014140793114048561
S010,P4..,0.07910646582641664,0.08607439286812173,-0.006967927041705083
S010,P6..,0.05748539809406702,0.07408545957577621,-0.016600061481709193
S010,P8..,0.044984117225125526,0.04436930013321037,0.0006148170919151597
S010,Po7.,0.06701506301875192,0.07265088636130751,-0.005635823342555593
S010,Po3.,0.048468080745978075,0.062403934829388254,-0.013935854083410179
S010,Poz.,0.08115585613280049,0.07377805102981863,0.00737780510298186
S010,Po4.,0.08484475868429142,0.06803975817194384,0.01680500051234758
S010,Po8.,0.05646070294087509,0.06373603852853776,-0.007275335587662676
S010,O1..,0.05676811148683267,0.07521262424428732,-0.01844451275745465
S010,Oz..,0.06650271544215595,0.06650271544215595,0.0
S010,O2..,0.05348908699661851,0.052566861358745776,0.0009222256378727325
S010,Iz..,0.044061891587252794,0.055948355364279126,-0.011886463777026332
S011,Fc5.,0.06260887386002664,0.059534788400450865,0.0030740854595757774
S011,Fc3.,0.044164361102571985,0.06465826416641049,-0.020493903063838505
S011,Fc1.,0.04508658674044472,0.06465826416641049,-0.019571677425965772
S011,Fcz.,0.05246439184342658,0.07285582539194589,-0.020391433548519314
S011,Fc2.,0.04580387334767907,0.06558048980428323,-0.01977661645660416
S011,Fc4.,0.05010759299108515,0.07756942309662876,-0.027461830105543608
S011,Fc6.,0.02899887283533149,0.08955835638897428,-0.06055948355364278
S011,C5..,0.03115073265703453,0.06271134337534584,-0.03156061071831131
S011,C3..,0.05041500153704273,0.06158417870683472,-0.011169177169791988
S011,C1..,0.07090890460088124,0.07531509375960652,-0.004406189158725274
S011,Cz..,0.07254841684598831,0.08166820370939645,-0.009119786863408141
S011,C2..,0.06158417870683472,0.03822112921405882,0.0233630494927759
S011,C4..,0.07080643508556204,0.07541756327492571,-0.00461112818936367
S011,C6..,0.05697305051747105,0.08843119172046317,-0.03145814120299212
S011,Cp5.,0.06291628240598422,0.05789527615534378,0.00502100625064044
S011,Cp3.,0.05779280664002459,0.03791372066810124,0.019879085971923352
S011,Cp1.,0.06424838610513373,0.07521262424428732,-0.010964238139153593
S011,Cpz.,0.07388052054513781,0.08084844758684291,-0.0069679270417050965
S011,Cp2.,0.04180756225023056,0.05338661748129931,-0.011579055231068752
S011,Cp4.,0.06957680090173174,0.07756942309662876,-0.00799262219489702
S011,Cp6.,0.059637257915770056,0.07500768521364894,-0.01537042729787888
S011,Fp1.,0.040885336612357825,0.05307920893534174,-0.012193872322983912
S011,Fpz.,0.047955733169382106,0.052156983297469005,-0.004201250128086899
S011,Fp2.,0.05451378214981043,0.062403934829388254,-0.007890152679577822
S011,Af7.,0.0576903371247054,0.05021006250640434,0.007480274618301058
S011,Af3.,0.017214878573624345,0.06517061174300645,-0.047955733169382106
S011,Afz.,0.01526795778255969,0.06476073368172969,-0.04949277589917
S011,Af4.,0.019059329849369814,0.06896198380981658,-0.04990265396044677
S011,Af8.,0.06332616046726099,0.05338661748129931,0.009939542985961676
S011,F7..,0.016805000512347578,0.04713597704682857,-0.030330976534480993
S011,F5..,0.017214878573624345,0.06250640434470744,-0.0452915257710831
S011,F3..,0.01578030535915565,0.06599036786555999,-0.05021006250640434
S011,F1..,0.027871708166820372,0.06885951429449738,-0.04098780612767701
S011,Fz..,0.040270519520442666,0.07080643508556204,-0.03053591556511938
S011,F2..,0.023977866584691053,0.07623731939747926,-0.0522594528127882
S011,F4..,0.02500256173788298,0.07972128291833179,-0.05471872118044881
S011,F6..,0.020801311609796085,0.07746695358130956,-0.05666564197151348
S011,F8..,0.01946920791064658,0.071318782662158,-0.051849574751511425
S011,Ft7.,0.05820268470130136,0.05799774567066298,0.00020493903063838192
S011,Ft8.,0.016702530997028384,0.04334460498001844,-0.02664207398299006
S011,T7..,0.0687570447791782,0.05246439184342658,0.01629265293575162
S011,T8..,0.08986576493493185,0.08853366123578235,0.0013321036991495033
S011,T9..,0.07101137411620043,0.05482119069576801,0.016190183420432415
S011,T10.,0.09232503330259248,0.040168050005123475,0.052156983297469005
S011,Tp7.,0.08269289886258838,0.0839225330464187,-0.0012296341838303193
S011,Tp8.,0.07767189261194794,0.08351265498514192,-0.005840762373193975
S011,P7..,0.054718721180448814,0.06885951429449738,-0.014140793114048568
S011,P5..,0.036889025514909315,0.07070396557024285,-0.03381494005533353
S011,P3..,0.06486320319704887,0.07439286812173379,-0.009529664924684919
S011,P1..,0.059227379854493285,0.08166820370939645,-0.022440823854903168
S011,Pz..,0.06957680090173174,0.08566451480684496,-0.016087713905113224
S011,P2..,0.05810021518598217,0.08125832564811969,-0.02315811046213752
S011,P4..,0.0604570140383236,0.07879905728045906,-0.018342043242135467
S011,P6..,0.0699866789630085,0.09171021621067732,-0.021723537247668817
S011,P8..,0.059944666461727636,0.0781842401885439,-0.01823957372681627
S011,Po7.,0.010964238139153601,0.08463981965365304,-0.07367558151449943
S011,Po3.,0.035761860846398194,0.07767189261194794,-0.04191003176554975
S011,Poz.,0.06342862998258018,0.08095091710216211,-0.017522287119581925
S011,Po4.,0.07705707552003278,0.0934521979711036,-0.016395122451070818
S011,Po8.,0.07777436212726714,0.09529664924684907,-0.017522287119581925
S011,O1..,0.05646070294087509,0.0823854903166308,-0.02592478737575571
S011,Oz..,0.07203606926939235,0.0850496977149298,-0.013013628445537453
S011,O2..,0.0034839635208525465,0.07316323393790347,-0.06967927041705092
S011,Iz..,0.06332616046726099,0.08064350855620453,-0.017317348088943543
S012,Fc5.,0.019059329849369814,0.08289783789322676,-0.06383850804385695
S012,Fc3.,0.03791372066810124,0.06937186187109334,-0.031458141202992104
S012,Fc1.,0.029716159442565837,0.06465826416641049,-0.03494210472384465
S012,Fcz.,0.02377292755405267,0.05697305051747105,-0.03320012296341838
S012,Fc2.,0.0699866789630085,0.06445332513577211,0.005533353827236395
S012,Fc4.,0.028896403320012296,0.06004713597704683,-0.03115073265703453
S012,Fc6.,0.01854698227277385,0.05400143457321447,-0.03545445230044062
S012,C5..,0.04713597704682857,0.08822625268982477,-0.0410902756429962
S012,C3..,0.055538477303002355,0.0810533866174813,-0.025514909314478938
S012,C1..,0.055948355364279126,0.07490521569832975,-0.018956860334050626
S012,Cz..,0.05697305051747105,0.06937186187109334,-0.012398811353622294
S012,C2..,0.05810021518598217,0.06834716671790142,-0.010246951531919249
S012,C4..,0.05451378214981043,0.06158417870683472,-0.007070396557024287
S012,C6..,0.05861256276257813,0.05102981862895788,0.007582744133620249
S012,Cp5.,0.05502612972640639,0.07582744133620248,-0.020801311609796085
S012,Cp3.,0.07541756327492571,0.07388052054513781,0.0015370427297878991
S012,Cp1.,0.07705707552003278,0.07500768521364894,0.002049390306383847
S012,Cpz.,0.06855210574853982,0.08115585613280049,-0.012603750384260676
S012,Cp2.,0.08484475868429142,0.07756942309662876,0.007275335587662662
S012,Cp4.,0.08187314274003483,0.07449533763705297,0.00737780510298186
S012,Cp6.,0.0823854903166308,0.07213853878471155,0.010246951531919249
S012,Fp1.,0.12265600983707348,0.0673224715647095,0.05533353827236398
S012,Fpz.,0.10943744236089763,0.06445332513577211,0.04498411722512552
S012,Fp2.,0.11476585715749564,0.0674249410800287,0.047340916077466946
S012,Af7.,0.03811865969873963,0.09621887488472179,-0.058100215185982164
S012,Af3.,0.03391740957065273,0.08617686238344092,-0.052259452812788196
S012,Afz.,0.01936673839532739,0.04887795880725484,-0.029511220411927448
S012,Af4.,0.0714212521774772,0.07049902653960446,0.0009222256378727395
S012,Af8.,0.12398811353622298,0.06722000204939031,0.05676811148683267
S012,F7..,0.029921098473204222,0.08720155753663285,-0.05728045906342863
S012,F5..,0.02940875089660826,0.07654472794343682,-0.047135977046828564
S012,F3..,0.00891484783276975,0.06629777641151757,-0.05738292857874782
S012,F1..,0.009529664924684907,0.06404344707449534,-0.05451378214981044
S012,Fz..,0.007787683164258633,0.05605082487959832,-0.048263141715339686
S012,F2..,0.008812378317450558,0.04682856850087099,-0.03801619018342044
S012,F4..,0.00850496977149298,0.04242237934214571,-0.03391740957065273
S012,F6..,0.008607439286812173,0.0343272876319295,-0.025719848345117327
S012,F8..,0.008607439286812173,0.0384260682446972,-0.029818628957885028
S012,Ft7.,0.010759299108515216,0.08873860026642073,-0.07797930115790552
S012,Ft8.,0.016087713905113227,0.03596679987703658,-0.019879085971923355
S012,T7..,0.06373603852853776,0.08822625268982477,-0.024490214161287008
S012,T8..,0.048160672200020495,0.08351265498514192,-0.03535198278512142
S012,T9..,0.05810021518598217,0.09550158827748745,-0.03740137309150528
S012,T10.,0.05277180038938416,0.08279536837790757,-0.030023567988523417
S012,Tp7.,0.07500768521364894,0.09273491136386924,-0.017727226150220307
S012,Tp8.,0.052259452812788196,0.07152372169279639,-0.019264268880008192
S012,P7..,0.08310277692386515,0.08269289886258838,0.00040987806127677773
S012,P5..,0.08300030740854596,0.0839225330464187,-0.0009222256378727395
S012,P3..,0.07172866072343478,0.08218055128599241,-0.01045189056255763
S012,P1..,0.07316323393790347,0.08289783789322676,-0.009734603955323287
S012,Pz..,0.085152167230249,0.08576698432216416,-0.0006148170919151597
S012,P2..,0.08310277692386515,0.08054103904088533,0.0025617378829798226
S012,P4..,0.08279536837790757,0.08013116097960857,0.0026642073982990067
S012,P6..,0.08453735013833384,0.08422994159237626,0.0003074085459575798
S012,P8..,0.0864842709293985,0.08781637462854801,-0.0013321036991495033
S012,Po7.,0.09437442360897633,0.09017317348088943,0.004201250128086892
S012,Po3.,0.09017317348088943,0.08761143559790963,0.0025617378829798088
S012,Poz.,0.08576698432216416,0.08351265498514192,0.002254329337022243
S012,Po4.,0.08453735013833384,0.08064350855620453,0.003893841582129312
S012,Po8.,0.08853366123578235,0.09048058202684701,-0.001946920791064663
S012,O1..,0.0932472589404652,0.08310277692386515,0.010144482016600051
S012,Oz..,0.08484475868429142,0.08627933189876012,-0.0014345732144687012
S012,O2..,0.08720155753663285,0.08822625268982477,-0.0010246951531919235
S012,Iz..,0.0864842709293985,0.09775591761450968,-0.011271646685111172
S013,Fc5.,0.02869146428937391,0.11958192437749769,-0.09089046008812378
S013,Fc3.,0.052566861358745776,0.11025719848345117,-0.05769033712470539
S013,Fc1.,0.07111384363151962,0.10656829593196024,-0.035454452300440614
S013,Fcz.,0.09375960651706118,0.10667076544727944,-0.012911158930218256
S013,Fc2.,0.05687058100215186,0.10738805205451378,-0.05051747105236192
S013,Fc4.,0.02817911671277795,0.1085152167230249,-0.08033610001024695
S013,Fc6.,0.0604570140383236,0.10277692386515012,-0.04231990982682653
S013,C5..,0.07500768521364894,0.10626088738600266,-0.03125320217235372
S013,C3..,0.07900399631109745,0.10246951531919254,-0.023465519008095098
S013,C1..,0.08361512450046112,0.09693616149195615,-0.013321036991495033
S013,Cz..,0.09703863100727533,0.11097448509068553,-0.013935854083410193
S013,C2..,0.08402500256173788,0.11128189363664309,-0.027256891074905212
S013,C4..,0.08248795983195,0.10667076544727944,-0.024182805615329442
S013,C6..,0.10195716774259658,0.101649759196639,0.0003074085459575798
S013,Cp5.,0.09611640536940261,0.11035966799877037,-0.014243262629367759
S013,Cp3.,0.10226457628855415,0.10205963725791577,0.00020493903063838192
S013,Cp1.,0.0947843016702531,0.1126139973357926,-0.01782969566553949
S013,Cpz.,0.10287939338046931,0.11035966799877037,-0.007480274618301058
S013,Cp2.,0.10667076544727944,0.11251152782047341,-0.005840762373193975
S013,Cp4.,0.10943744236089763,0.10759299108515216,0.001844451275745465
S013,Cp6.,0.10144482016600062,0.10134235065068142,0.0001024695153191979
S013,Fp1.,0.06793728865662466,0.10605594835536428,-0.03811865969873962
S013,Fpz.,0.07388052054513781,0.10656829593196024,-0.032687775386822424
S013,Fp2.,0.085152167230249,0.10749052156983298,-0.022338354339583977
S013,Af7.,0.06588789835024081,0.10615841787068347,-0.040270519520442666
S013,Af3.,0.060661953068961987,0.10615841787068347,-0.04549646480172149
S013,Afz.,0.019264268880008196,0.10738805205451378,-0.08812378317450559
S013,Af4.,0.06537555077364485,0.09642381391536017,-0.031048263141715327
S013,Af8.,0.10933497284557844,0.10287939338046931,0.006455579465109135
S013,F7..,0.022030945793626397,0.09580899682344503,-0.07377805102981863
S013,F5..,0.010964238139153601,0.1058510093247259,-0.09488677118557229
S013,F3..,0.017522287119581925,0.10472384465621477,-0.08720155753663285
S013,F1..,0.021211189671072855,0.10779793011579056,-0.0865867404447177
S013,Fz..,0.019571677425965776,0.10369914950302285,-0.08412747207705708
S013,F2..,0.016600061481709193,0.10328927144174609,-0.0866892099600369
S013,F4..,0.011066707654472794,0.11005225945281279,-0.09898555179834
S013,F6..,0.05717798954810944,0.11076954606004713,-0.05359155651193769
S013,F8..,0.051542166205553845,0.10933497284557844,-0.0577928066400246
S013,Ft7.,0.030023567988523413,0.10103494210472384,-0.07101137411620043
S013,Ft8.,0.06209652628343068,0.09878061276770161,-0.036684086484270934
S013,T7..,0.10349421047238447,0.11517573521877242,-0.01168152474638795
S013,T8..,0.10831027769238652,0.10749052156983298,0.0008197561225535416
S013,T9..,0.118147351163029,0.06650271544215595,0.05164463572087305
S013,T10.,0.1029818628957885,0.07521262424428732,0.027769238651501188
S013,Tp7.,0.10615841787068347,0.11435597909621888,-0.008197561225535402
S013,Tp8.,0.11517573521877242,0.11312634491238857,0.002049390306383847
S013,P7..,0.0975509785838713,0.09919049082897838,-0.0016395122451070832
S013,P5..,0.09929296034429758,0.09652628343067937,0.0027666769136182046
S013,P3..,0.101649759196639,0.08207808177067323,0.019571677425965772
S013,P1..,0.10482631417153397,0.11056460702940875,-0.005738292857874777
S013,Pz..,0.10328927144174609,0.10913003381494006,-0.005840762373193975
S013,P2..,0.10656829593196024,0.11466338764217646,-0.008095091710216218
S013,P4..,0.08873860026642073,0.11640536940260272,-0.02766676913618199
S013,P6..,0.06967927041705092,0.09673122246131775,-0.02705195204426683
S013,P8..,0.07633978891279844,0.11958192437749769,-0.04324213546469925
S013,Po7.,0.10042012501280868,0.10226457628855415,-0.001844451275745465
S013,Po3.,0.10390408853366123,0.10195716774259658,0.001946920791064649
S013,Poz.,0.10523619223281074,0.10953991187621683,-0.00430371964340609
S013,Po4.,0.10001024695153192,0.09181268572599652,0.008197561225535402
S013,Po8.,0.09089046008812378,0.08156573419407726,0.009324725894046523
S013,O1..,0.07674966697407522,0.08023363049492777,-0.0034839635208525482
S013,Oz..,0.07982375243365099,0.10103494210472384,-0.021211189671072855
S013,O2..,0.10451890562557639,0.08433241110769546,0.020186494517880932
S013,Iz..,0.025617378829798136,0.04559893431704068,-0.019981555487242543
S014,Fc5.,0.04458797791436608,0.09611640536940261,-0.05152842745503653
S014,Fc3.,0.04875507865402646,0.09427195409365714,-0.045516875439630684
S014,Fc1.,0.05302635691217835,0.0975509785838713,-0.044524621671692945
S014,Fcz.,0.050734451505365145,0.09396454554769956,-0.04323009404233442
S014,Fc2.,0.05802687779977081,0.08207808177067323,-0.02405120397090242
S014,Fc4.,0.03417022606521513,0.08832872220514397,-0.05415849613992884
S014,Fc6.,0.015001562662777372,0.11794241213239061,-0.10294084946961324
S014,C5..,0.09698926971559538,0.11609796085664514,-0.019108691141049766
S014,C3..,0.08084175434941139,0.10113741162004304,-0.02029565727063165
S014,C1..,0.08928013334722366,0.08115585613280049,0.008124277214423173
S014,Cz..,0.10115637045525576,0.08320524643918434,0.01795112401607142
S014,C2..,0.07854984894259819,0.08863613075110155,-0.010086281808503364
S014,C4..,0.025940202104385874,0.10083000307408546,-0.07488980096969959
S014,C6..,0.10907386186061048,0.12296341838303104,-0.013889556522420562
S014,Cp5.,0.12053338889467653,0.09621887488472179,0.02431451400995474
S014,Cp3.,0.034378581102198144,0.10257198483451173,-0.06819340373231358
S014,Cp1.,0.10917803937910199,0.09867814325238242,0.010499896126719574
S014,Cpz.,0.10178143556620481,0.0850496977149298,0.016731737851275005
S014,Cp2.,0.09323887904990102,0.07674966697407522,0.016489212075825807
S014,Cp4.,0.08552974268152932,0.09529664924684907,-0.009766906565319741
S014,Cp6.,0.10449005104698406,0.11712265600983707,-0.012632604962853011
S014,Fp1.,0.015730805292217938,0.0674249410800287,-0.051694135787810756
S014,Fpz.,0.020627148661318886,0.06701506301875192,-0.04638791435743303
S014,Fp2.,0.018751953328471717,0.07808177067322472,-0.059329817344753004
S014,Af7.,0.032399208250859464,0.0934521979711036,-0.06105298972024414
S014,Af3.,0.011876237108032086,0.06803975817194384,-0.05616352106391175
S014,Afz.,0.004792165850609438,0.07172866072343478,-0.06693649487282535
S014,Af4.,0.005104698406083967,0.09048058202684701,-0.08537588362076305
S014,Af8.,0.006146473590999063,0.0907879905728046,-0.08464151698180553
S014,F7..,0.009792686738201896,0.059739727431089254,-0.04994704069288736
S014,F5..,0.03562871132409626,0.013628445537452608,0.02200026578664365
S014,F3..,0.0058339410355245334,0.10001024695153192,-0.09417630591600738
S014,F1..,0.005313053443066986,0.0919151552413157,-0.08660210179824872
S014,Fz..,0.008021668923846235,0.09242750281791168,-0.08440583389406545
S014,F2..,0.008542556516303782,0.07521262424428732,-0.06667006772798353
S014,F4..,0.005729763517033025,0.08597192335280254,-0.08024215983576952
S014,F6..,0.004792165850609438,0.09130033814940056,-0.08650817229879113
S014,F8..,0.004792165850609438,0.09242750281791168,-0.08763533696730225
S014,Ft7.,0.028440462548182104,0.07367558151449943,-0.04523511896631733
S014,Ft8.,0.03125325554745286,0.134644943129419,-0.10339168758196612
S014,T7..,0.05406813209709345,0.07869658776513987,-0.024628455668046417
S014,T8..,0.08240441712678404,0.08341018546982273,-0.0010057683430386988
S014,T9..,0.06000625065110949,0.07910646582641664,-0.019100215175307154
S014,T10.,0.05594332742994062,0.14396966902346553,-0.0880263415935249
S014,Tp7.,0.13668090426086052,0.09355466748642279,0.043126236774437735
S014,Tp8.,0.11719970830294822,0.07111384363151962,0.0460858646714286
S014,P7..,0.0994895301593916,0.07090890460088124,0.02858062555851036
S014,P5..,0.10532347119491614,0.10113741162004304,0.004186059574873099
S014,P3..,0.08771747056985102,0.09273491136386924,-0.005017440794018224
S014,P1..,0.1136576726742369,0.09365713700174198,0.02000053567249492
S014,Pz..,0.10709448900927179,0.08545957577620658,0.02163491323306521
S014,P2..,0.08375872486717366,0.08699661850599447,-0.0032378936388208074
S014,P4..,0.10188561308469632,0.07890152679577826,0.022984086288918057
S014,P6..,0.10240650067715387,0.08966082590429347,0.0127456747728604
S014,P8..,0.0579227002812793,0.09990777743621272,-0.04198507715493342
S014,Po7.,0.11959579122825294,0.09990777743621272,0.019688013792040215
S014,Po3.,0.11876237108032087,0.1002151859821703,0.018547185098150565
S014,Poz.,0.09688509219710387,0.08945588687365509,0.007429205323448776
S014,Po4.,0.10521929367642463,0.08668920996003689,0.018530083716387744
S014,Po8.,0.10001041775184916,0.08576698432216416,0.014243433429684996
S014,O1..,0.09969788519637462,0.11312634491238857,-0.013428459716013946
S014,Oz..,0.1135534951557454,0.0850496977149298,0.02850379744081559
S014,O2..,0.10761537660172935,0.10083000307408546,0.006785373527643884
S014,Iz..,0.07657047609125951,0.06414591658981453,0.012424559501444984
S015,Fc5.,0.09621887488472179,0.13157085766984322,-0.03535198278512143
S015,Fc3.,0.08730402705195205,0.12142637565324316,-0.03412234860129111
S015,Fc1.,0.08422994159237626,0.11343375345834614,-0.029203811865969875
S015,Fcz.,0.10738805205451378,0.11056460702940875,-0.0031765549748949684
S015,Fc2.,0.1223486012911159,0.11220411927451583,0.010144482016600065
S015,Fc4.,0.10246951531919254,0.11794241213239061,-0.015472896813198064
S015,Fc6.,0.0837175940157803,0.13126344912388566,-0.047545855108105356
S015,C5..,0.12706219899579874,0.11363869248898453,0.013423506506814203
S015,C3..,0.11579055231068756,0.11322881442770776,0.0025617378829798088
S015,C1..,0.1139461010349421,0.11589302182600676,-0.001946920791064663
S015,Cz..,0.12029921098473204,0.10943744236089763,0.010861768623834409
S015,C2..,0.11978686340813607,0.09089046008812378,0.028896403320012296
S015,C4..,0.10882262526898248,0.10205963725791577,0.0067629880110667145
S015,C6..,0.0769546060047136,0.1357721077979301,-0.058817501793216515
S015,Cp5.,0.09293985039450764,0.09355466748642279,-0.0006148170919151458
S015,Cp3.,0.12081155856132801,0.11589302182600676,0.0049185367353212495
S015,Cp1.,0.10759299108515216,0.1139461010349421,-0.006353109949789937
S015,Cpz.,0.11845475970898657,0.10831027769238652,0.010144482016600051
S015,Cp2.,0.12439799159749974,0.10810533866174812,0.01629265293575162
S015,Cp4.,0.12183625371451993,0.11824982067834819,0.003586433036171746
S015,Cp6.,0.11958192437749769,0.12265600983707348,-0.0030740854595757844
S015,Fp1.,0.02541243979915975,0.12388564402090378,-0.09847320422174403
S015,Fpz.,0.011783994261707143,0.1153806742494108,-0.10359667998770365
S015,Fp2.,0.007377805102981863,0.10636335690132186,-0.09898555179834
S015,Af7.,0.01578030535915565,0.11824982067834819,-0.10246951531919254
S015,Af3.,0.016087713905113227,0.11558561328004918,-0.09949789937493596
S015,Afz.,0.0178296956655395,0.09048058202684701,-0.07265088636130751
S015,Af4.,0.009222256378727329,0.09980530792089354,-0.09058305154216621
S015,Af8.,0.009222256378727329,0.11517573521877242,-0.10595347884004509
S015,F7..,0.028793933804693105,0.1072855825391946,-0.07849164873450148
S015,F5..,0.02623219592171329,0.126139973357926,-0.09990777743621272
S015,F3..,0.027154421559586025,0.09816579567578645,-0.07101137411620043
S015,F1..,0.0549236602110872,0.11497079618813404,-0.060047135977046834
S015,Fz..,0.052156983297469005,0.11783994261707142,-0.06568295931960241
S015,F2..,0.06588789835024081,0.12029921098473204,-0.05441131263449123
S015,F4..,0.05441131263449124,0.11517573521877242,-0.06076442258428118
S015,F6..,0.11691771697919869,0.1152782047340916,0.0016395122451070832
S015,F8..,0.06629777641151757,0.11568808279536838,-0.04939030638385081
S015,Ft7.,0.13208320524643918,0.11322881442770776,0.01885439081873143
S015,Ft8.,0.09591146633876421,0.13956347986474024,-0.04365201352597603
S015,T7..,0.12921405881750178,0.09857567373706322,0.030638385080438563
S015,T8..,0.14058817501793217,0.14386719950814633,-0.0032790244902141663
S015,T9..,0.08802131365918639,0.04877548929193565,0.03924582436725074
S015,T10.,0.13833384568090992,0.1249103391740957,0.013423506506814217
S015,Tp7.,0.09898555179834,0.07275335587662671,0.02623219592171329
S015,Tp8.,0.12593503432728764,0.12716466851111793,-0.0012296341838302915
S015,P7..,0.05820268470130136,0.07490521569832975,-0.01670253099702839
S015,P5..,0.10677323496259862,0.09232503330259248,0.01444820166000614
S015,P3..,0.10974485090685521,0.10800286914642894,0.0017419817604262672
S015,P1..,0.1015472896813198,0.10892509478430167,-0.00737780510298186
S015,Pz..,0.12245107080643508,0.1127164668511118,0.009734603955323287
S015,P2..,0.1236807049902654,0.11476585715749564,0.00891484783276976
S015,P4..,0.12111896710728558,0.10667076544727944,0.01444820166000614
S015,P6..,0.12470540014345732,0.0687570447791782,0.055948355364279126
S015,P8..,0.11855722922430577,0.10257198483451173,0.01598524438979404
S015,Po7.,0.10267445434983093,0.09765344809919049,0.0050210062506404335
S015,Po3.,0.10636335690132186,0.09960036889025516,0.006762988011066701
S015,Poz.,0.1168152474638795,0.11230658878983503,0.004508658674044472
S015,Po4.,0.12173378419920074,0.07049902653960446,0.05123475765959627
S015,Po8.,0.1223486012911159,0.101649759196639,0.020698842094476894
S015,O1..,0.10175222871195819,0.08966082590429347,0.012091402807664714
S015,Oz..,0.09816579567578645,0.08822625268982477,0.009939542985961683
S015,O2..,0.10544113126344912,0.10759299108515216,-0.002151859821703045
S015,Iz..,0.0549236602110872,0.06793728865662466,-0.013013628445537453
S016,Fc5.,0.06219899579874987,0.0852546367455682,-0.023055640946818327
S016,Fc3.,0.04283225740342248,0.08720155753663285,-0.04436930013321037
S016,Fc1.,0.04242237934214571,0.08843119172046317,-0.04600881237831746
S016,Fcz.,0.03227789732554565,0.09089046008812378,-0.058612562762578126
S016,Fc2.,0.03524951326980223,0.08054103904088533,-0.0452915257710831
S016,Fc4.,0.03996311097448509,0.08750896608259043,-0.047545855108105335
S016,Fc6.,0.020493903063838508,0.07674966697407522,-0.056255763910236706
S016,C5..,0.10318680192642689,0.09222256378727328,0.010964238139153606
S016,C3..,0.06363356901321857,0.08115585613280049,-0.017522287119581925
S016,C1..,0.07162619120811559,0.09396454554769956,-0.022338354339583977
S016,Cz..,0.06117430064555795,0.0921200942719541,-0.03094579362639615
S016,C2..,0.05820268470130136,0.07920893534173583,-0.021006250640434466
S016,C4..,0.04293472691874167,0.09232503330259248,-0.04939030638385081
S016,C6..,0.04918536735321242,0.04918536735321242,0.0
S016,Cp5.,0.09488677118557229,0.08689414899067527,0.00799262219489702
S016,Cp3.,0.08945588687365509,0.08576698432216416,0.00368890255149093
S016,Cp1.,0.06855210574853982,0.08545957577620658,-0.016907470027666766
S016,Cpz.,0.08064350855620453,0.08873860026642073,-0.008095091710216204
S016,Cp2.,0.07060149605492366,0.07101137411620043,-0.00040987806127676385
S016,Cp4.,0.06640024592683677,0.06824469720258224,-0.001844451275745465
S016,Cp6.,0.055128599241725584,0.02090378112511528,0.03422481811661031
S016,Fp1.,0.043856952556614405,0.06506814222768727,-0.021211189671072862
S016,Fpz.,0.041295214673634596,0.05840762373193975,-0.017112409058305154
S016,Fp2.,0.04570140383235987,0.055640946818321546,-0.009939542985961676
S016,Af7.,0.05400143457321447,0.04703350753150937,0.0069679270417050965
S016,Af3.,0.036991495030228506,0.0617891177374731,-0.024797622707244595
S016,Afz.,0.02100625064043447,0.0781842401885439,-0.05717798954810943
S016,Af4.,0.04590634286299826,0.05810021518598217,-0.012193872322983912
S016,Af8.,0.07951634388769341,0.05072241008300031,0.028793933804693098
S016,F7..,0.04354954401065683,0.05123475765959627,-0.00768521364893944
S016,F5..,0.048160672200020495,0.06342862998258018,-0.01526795778255969
S016,F3..,0.03197048877958807,0.07388052054513781,-0.04191003176554974
S016,F1..,0.02100625064043447,0.0741879290910954,-0.05318167845066092
S016,Fz..,0.02295317143149913,0.08566451480684496,-0.06271134337534584
S016,F2..,0.019879085971923352,0.0757249718208833,-0.05584588584895994
S016,F4..,0.020493903063838508,0.07306076442258429,-0.052566861358745776
S016,F6..,0.03965570242852751,0.06937186187109334,-0.02971615944256583
S016,F8..,0.01946920791064658,0.04600881237831745,-0.02653960446767087
S016,Ft7.,0.1071831130238754,0.07654472794343682,0.030638385080438577
S016,Ft8.,0.01537042729787888,0.0467260989855518,-0.03135567168767292
S016,T7..,0.10810533866174812,0.07603238036684086,0.032072958294907264
S016,T8..,0.13894866277282508,0.1070806435085562,0.03186801926426888
S016,T9..,0.11148683266728149,0.07582744133620248,0.03565939133107901
S016,T10.,0.07920893534173583,0.035761860846398194,0.043447074495337634
S016,Tp7.,0.0920176247566349,0.0863818014140793,0.005635823342555593
S016,Tp8.,0.142637565324316,0.08453735013833384,0.05810021518598217
S016,P7..,0.08761143559790963,0.09601393585408341,-0.008402500256173784
S016,P5..,0.07480274618301055,0.08023363049492777,-0.005430884311917211
S016,P3..,0.07879905728045906,0.08197561225535403,-0.0031765549748949684
S016,P1..,0.07777436212726714,0.08115585613280049,-0.0033814940055333503
S016,Pz..,0.07910646582641664,0.08248795983195,-0.0033814940055333503
S016,P2..,0.07767189261194794,0.07931140485705503,-0.0016395122451070832
S016,P4..,0.06855210574853982,0.09703863100727533,-0.028486525258735518
S016,P6..,0.06291628240598422,0.09160774669535814,-0.028691464289373914
S016,P8..,0.10042012501280868,0.10974485090685521,-0.009324725894046523
S016,Po7.,0.09929296034429758,0.1003176554974895,-0.0010246951531919235
S016,Po3.,0.06988420944768932,0.08812378317450559,-0.01823957372681627
S016,Poz.,0.09775591761450968,0.09611640536940261,0.0016395122451070693
S016,Po4.,0.08576698432216416,0.0988830822830208,-0.013116097960856637
S016,Po8.,0.09929296034429758,0.10175222871195819,-0.002459268367660611
S016,O1..,0.07060149605492366,0.09939542985961676,-0.028793933804693098
S016,Oz..,0.08289783789322676,0.09949789937493596,-0.0166000614817092
S016,O2..,0.08207808177067323,0.09099292960344298,-0.008914847832769746
S016,Iz..,0.08894353929705913,0.0975509785838713,-0.008607439286812166
S017,Fc5.,0.13607951634388768,0.1428425043549544,-0.006762988011066728
S017,Fc3.,0.1141510400655805,0.12747207705707553,-0.013321036991495033
S017,Fc1.,0.07726201455067118,0.0920176247566349,-0.01475561020596372
S017,Fcz.,0.08248795983195,0.09222256378727328,-0.009734603955323287
S017,Fc2.,0.08484475868429142,0.0906855210574854,-0.005840762373193975
S017,Fc4.,0.09826826519110565,0.08330771595450354,0.014960549236602116
S017,Fc6.,0.10595347884004509,0.11497079618813404,-0.009017317348088943
S017,C5..,0.05840762373193975,0.12552515626601085,-0.0671175325340711
S017,C3..,0.0631212214366226,0.12562762578133005,-0.06250640434470744
S017,C1..,0.09939542985961676,0.1086176862383441,-0.00922225637872734
S017,Cz..,0.07931140485705503,0.10380161901834205,-0.02449021416128702
S017,C2..,0.07121631314683882,0.1003176554974895,-0.029101342350650677
S017,C4..,0.09621887488472179,0.10462137514089559,-0.008402500256173798
S017,C6..,0.0315606107183113,0.12029921098473204,-0.08873860026642073
S017,Cp5.,0.09314478942514602,0.12429552208218055,-0.031150732657034524
S017,Cp3.,0.08033610001024695,0.1166103084332411,-0.036274208422994156
S017,Cp1.,0.08033610001024695,0.09908802131365918,-0.01875192130341223
S017,Cpz.,0.08054103904088533,0.10451890562557639,-0.02397786658469106
S017,Cp2.,0.0823854903166308,0.10626088738600266,-0.023875397069371862
S017,Cp4.,0.047750794138743724,0.07244594733066913,-0.024695153191925404
S017,Cp6.,0.10093247258940465,0.10533866174812993,-0.004406189158725288
S017,Fp1.,0.056153294394917515,0.05328414796598012,0.0028691464289373955
S017,Fpz.,0.03453222666256789,0.04477917819448714,-0.010246951531919249
S017,Fp2.,0.03893841582129316,0.051747105236192234,-0.012808689414899072
S017,Af7.,0.08064350855620453,0.05389896505789528,0.02674454349830925
S017,Af3.,0.10421149707961881,0.08064350855620453,0.023567988523414282
S017,Afz.,0.03883594630597397,0.0453939952864023,-0.006558048980428326
S017,Af4.,0.055128599241725584,0.03186801926426888,0.023260579977456702
S017,Af8.,0.03750384260682447,0.059227379854493285,-0.021723537247668817
S017,F7..,0.10093247258940465,0.08218055128599241,0.01875192130341223
S017,F5..,0.12941899784814018,0.07859411824982068,0.050824879598319495
S017,F3..,0.06855210574853982,0.052566861358745776,0.01598524438979404
S017,F1..,0.08310277692386515,0.06599036786555999,0.01711240905830516
S017,Fz..,0.08730402705195205,0.0673224715647095,0.01998155548724255
S017,F2..,0.09949789937493596,0.05369402602725689,0.04580387334767907
S017,F4..,0.09775591761450968,0.05389896505789528,0.0438569525566144
S017,F6..,0.11066707654472795,0.048160672200020495,0.06250640434470744
S017,F8..,0.07982375243365099,0.06158417870683472,0.01823957372681627
S017,Ft7.,0.12654985141920277,0.10492878368685316,0.02162106773234962
S017,Ft8.,0.07347064248386105,0.12327082692898862,-0.04980018444512757
S017,T7..,0.0769546060047136,0.11937698534685931,-0.04242237934214571
S017,T8..,0.05389896505789528,0.09263244184855006,-0.03873347679065478
S017,T9..,0.08679167947535608,0.09765344809919049,-0.010861768623834409
S017,T10.,0.04201250128086894,0.05277180038938416,-0.010759299108515218
S017,Tp7.,0.06978173993237012,0.10523619223281074,-0.035454452300440614
S017,Tp8.,0.10421149707961881,0.0934521979711036,0.01075929910851521
S017,P7..,0.08597192335280254,0.10318680192642689,-0.017214878573624345
S017,P5..,0.07121631314683882,0.10216210677323496,-0.030945793626396143
S017,P3..,0.0466236294702326,0.11702018649451788,-0.07039655702428528
S017,P1..,0.07541756327492571,0.10953991187621683,-0.03412234860129111
S017,Pz..,0.07049902653960446,0.11025719848345117,-0.039758171943846704
S017,P2..,0.0755200327902449,0.10380161901834205,-0.02828158622809715
S017,P4..,0.06599036786555999,0.1044164361102572,-0.0384260682446972
S017,P6..,0.05482119069576801,0.09857567373706322,-0.04375448304129521
S017,P8..,0.08218055128599241,0.1072855825391946,-0.02510503125320218
S017,Po7.,0.08422994159237626,0.1168152474638795,-0.03258530587150324
S017,Po3.,0.07972128291833179,0.10472384465621477,-0.025002561737882983
S017,Poz.,0.07623731939747926,0.11353622297366534,-0.03729890357618608
S017,Po4.,0.05246439184342658,0.10872015575366328,-0.056255763910236706
S017,Po8.,0.02694948252894764,0.1098473204221744,-0.08289783789322677
S017,O1..,0.0921200942719541,0.10974485090685521,-0.01762475663490111
S017,Oz..,0.08422994159237626,0.11097448509068553,-0.026744543498309264
S017,O2..,0.09130033814940056,0.1044164361102572,-0.013116097960856637
S017,Iz..,0.04723844656214776,0.11783994261707142,-0.07060149605492366
S018,Fc5.,0.036274208422994156,0.08904600881237831,-0.05277180038938416
S018,Fc3.,0.03453222666256789,0.09293985039450764,-0.05840762373193975
S018,Fc1.,0.036786555999590125,0.09662875294599857,-0.059842196946408445
S018,Fcz.,0.03801619018342043,0.0988830822830208,-0.06086689209960037
S018,Fc2.,0.03791372066810124,0.09960036889025516,-0.06168664822215392
S018,Fc4.,0.03822112921405882,0.09960036889025516,-0.06137923967619634
S018,Fc6.,0.04068039758171944,0.10820780817706732,-0.06752741059534789
S018,C5..,0.03996311097448509,0.0988830822830208,-0.058919971308535705
S018,C3..,0.03514704375448304,0.09826826519110565,-0.0631212214366226
S018,C1..,0.03494210472384466,0.09498924070089149,-0.06004713597704683
S018,Cz..,0.040577928066400246,0.09826826519110565,-0.05769033712470541
S018,C2..,0.0411927451583154,0.09867814325238242,-0.05748539809406702
S018,C4..,0.04867301977661646,0.10749052156983298,-0.05881750179321652
S018,C6..,0.06342862998258018,0.10994978993749359,-0.046521159954913405
S018,Cp5.,0.0411927451583154,0.09580899682344503,-0.05461625166512963
S018,Cp3.,0.036786555999590125,0.09314478942514602,-0.0563582334255559
S018,Cp1.,0.04160262321959217,0.09806332616046726,-0.05646070294087509
S018,Cpz.,0.0535915565119377,0.10072753355876626,-0.047135977046828564
S018,Cp2.,0.05348908699661851,0.09826826519110565,-0.044779178194487144
S018,Cp4.,0.05687058100215186,0.10677323496259862,-0.04990265396044676
S018,Cp6.,0.06783481914130546,0.09939542985961676,-0.0315606107183113
S018,Fp1.,0.0467260989855518,0.07306076442258429,-0.026334665437032487
S018,Fpz.,0.04303719643406086,0.08576698432216416,-0.0427297878881033
S018,Fp2.,0.04324213546469925,0.09509171021621068,-0.05184957475151143
S018,Af7.,0.04928783686853161,0.0687570447791782,-0.019469207910646588
S018,Af3.,0.04467670867916795,0.07736448406599036,-0.03268777538682242
S018,Afz.,0.0425248488574649,0.09283738087918844,-0.05031253202172354
S018,Af4.,0.04477917819448714,0.09437442360897633,-0.04959524541448919
S018,Af8.,0.03996311097448509,0.09929296034429758,-0.05932984936981248
S018,F7..,0.04734091607746695,0.068654575263859,-0.021313659186392046
S018,F5..,0.03883594630597397,0.06926939235577416,-0.030433446049800188
S018,F3..,0.03924582436725074,0.08125832564811969,-0.04201250128086895
S018,F1..,0.03391740957065273,0.09652628343067937,-0.06260887386002664
S018,Fz..,0.040475458551081055,0.09611640536940261,-0.05564094681832155
S018,F2..,0.03873347679065478,0.09785838712982887,-0.059124910339174094
S018,F4..,0.03955323291320832,0.09703863100727533,-0.05748539809406701
S018,F6..,0.04170509273491137,0.10759299108515216,-0.0658878983502408
S018,F8..,0.052259452812788196,0.10431396659493801,-0.052054513782149814
S018,Ft7.,0.03945076339788913,0.08412747207705708,-0.04467670867916795
S018,Ft8.,0.05021006250640434,0.08996823445025105,-0.03975817194384671
S018,T7..,0.03115073265703453,0.10062506404344708,-0.06947433138641254
S018,T8..,0.05236192232810739,0.09314478942514602,-0.040782867097038634
S018,T9..,0.028896403320012296,0.06424838610513373,-0.03535198278512143
S018,T10.,0.041295214673634596,0.10144482016600062,-0.060149605492366025
S018,Tp7.,0.05533353827236397,0.10083000307408546,-0.04549646480172149
S018,Tp8.,0.07449533763705297,0.10359667998770365,-0.029101342350650677
S018,P7..,0.051952044266830616,0.0907879905728046,-0.03883594630597398
S018,P5..,0.05400143457321447,0.09488677118557229,-0.04088533661235782
S018,P3..,0.0508248795983195,0.09826826519110565,-0.04744338559278615
S018,P1..,0.052259452812788196,0.09980530792089354,-0.04754585510810534
S018,Pz..,0.06670765447279435,0.09960036889025516,-0.032892714417460805
S018,P2..,0.05717798954810944,0.09919049082897838,-0.04201250128086894
S018,P4..,0.05307920893534174,0.10083000307408546,-0.047750794138743724
S018,P6..,0.062403934829388254,0.10523619223281074,-0.04283225740342248
S018,P8..,0.06537555077364485,0.1029818628957885,-0.03760631212214366
S018,Po7.,0.06465826416641049,0.09693616149195615,-0.03227789732554566
S018,Po3.,0.060661953068961987,0.0933497284557844,-0.03268777538682242
S018,Poz.,0.06086689209960037,0.09878061276770161,-0.037913720668101246
S018,Po4.,0.056563172456194286,0.10011271646685112,-0.04354954401065683
S018,Po8.,0.05861256276257813,0.07254841684598831,-0.013935854083410179
S018,O1..,0.06435085562045291,0.10380161901834205,-0.03945076339788914
S018,Oz..,0.062403934829388254,0.09929296034429758,-0.03688902551490932
S018,O2..,0.0590224408238549,0.09498924070089149,-0.03596679987703658
S018,Iz..,0.06342862998258018,0.10103494210472384,-0.03760631212214366
S019,Fc5.,0.08054103904088533,0.10933497284557844,-0.02879393380469311
S019,Fc3.,0.0205963725791577,0.09242750281791168,-0.07183113023875398
S019,Fc1.,0.007377805102981863,0.09232503330259248,-0.08494722819961062
S019,Fcz.,0.009119786863408136,0.08750896608259043,-0.07838917921918229
S019,Fc2.,0.017522287119581925,0.09785838712982887,-0.08033610001024695
S019,Fc4.,0.10400655804898043,0.09939542985961676,0.00461112818936367
S019,Fc6.,0.10882262526898248,0.10923250333025925,-0.00040987806127676385
S019,C5..,0.036171738907674965,0.11005225945281279,-0.07388052054513783
S019,C3..,0.03104826314171534,0.10564607029408751,-0.07459780715237217
S019,C1..,0.026744543498309254,0.09949789937493596,-0.07275335587662671
S019,Cz..,0.02500256173788298,0.10113741162004304,-0.07613484988216006
S019,C2..,0.021108720155753664,0.09580899682344503,-0.07470027666769136
S019,C4..,0.032175427810226455,0.11343375345834614,-0.08125832564811969
S019,C6..,0.027154421559586025,0.11507326570345322,-0.08791884414386719
S019,Cp5.,0.07941387437237422,0.11456091812685726,-0.035147043754483034
S019,Cp3.,0.048468080745978075,0.10564607029408751,-0.05717798954810944
S019,Cp1.,0.04324213546469925,0.10093247258940465,-0.05769033712470539
S019,Cpz.,0.07992622194897019,0.10503125320217235,-0.025105031253202167
S019,Cp2.,0.04959524541448919,0.10421149707961881,-0.05461625166512962
S019,Cp4.,0.06691259350343273,0.10482631417153397,-0.03791372066810124
S019,Cp6.,0.10882262526898248,0.11548314376473,-0.006660518495747517
S019,Fp1.,0.011374116200430372,0.11579055231068756,-0.1044164361102572
S019,Fpz.,0.015472896813198073,0.10913003381494006,-0.09365713700174198
S019,Fp2.,0.06517061174300645,0.08822625268982477,-0.02305564094681832
S019,Af7.,0.03166308023363049,0.11824982067834819,-0.0865867404447177
S019,Af3.,0.08771390511322881,0.10892509478430167,-0.021211189671072855
S019,Afz.,0.008095091710216211,0.1015472896813198,-0.0934521979711036
S019,Af4.,0.009632134440004098,0.10011271646685112,-0.09048058202684701
S019,Af8.,0.052566861358745776,0.10759299108515216,-0.055026129726406386
S019,F7..,0.011374116200430372,0.09878061276770161,-0.08740649656727124
S019,F5..,0.055538477303002355,0.10380161901834205,-0.04826314171533969
S019,F3..,0.047750794138743724,0.10769546060047136,-0.059944666461727636
S019,F1..,0.00850496977149298,0.09908802131365918,-0.0905830515421662
S019,Fz..,0.008197561225535404,0.09642381391536017,-0.08822625268982477
S019,F2..,0.009017317348088943,0.10759299108515216,-0.09857567373706322
S019,F4..,0.12654985141920277,0.10953991187621683,0.01700993954298595
S019,F6..,0.10646582641664105,0.11835229019366739,-0.011886463777026332
S019,F8..,0.010246951531919254,0.08761143559790963,-0.07736448406599038
S019,Ft7.,0.03955323291320832,0.10462137514089559,-0.06506814222768727
S019,Ft8.,0.018751921303412234,0.11507326570345322,-0.09632134440004099
S019,T7..,0.11589302182600676,0.09560405779280665,0.020288964033200116
S019,T8..,0.06506814222768727,0.13013628445537453,-0.06506814222768727
S019,T9..,0.0921200942719541,0.10472384465621477,-0.012603750384260676
S019,T10.,0.04559893431704068,0.09960036889025516,-0.05400143457321448
S019,Tp7.,0.08125832564811969,0.11374116200430372,-0.03248283635618403
S019,Tp8.,0.06660518495747515,0.12993134542473614,-0.06332616046726099
S019,P7..,0.11353622297366534,0.09929296034429758,0.014243262629367759
S019,P5..,0.08689414899067527,0.10605594835536428,-0.01916179936468901
S019,P3..,0.06363356901321857,0.10380161901834205,-0.04016805000512348
S019,P1..,0.05430884311917205,0.09765344809919049,-0.04334460498001844
S019,Pz..,0.05810021518598217,0.09816579567578645,-0.040065580489804284
S019,P2..,0.05338661748129931,0.10369914950302285,-0.05031253202172354
S019,P4..,0.06107183113023876,0.10308433241110769,-0.04201250128086893
S019,P6..,0.09089046008812378,0.11917204631622093,-0.02828158622809715
S019,P8..,0.09119786863408136,0.11896710728558253,-0.027769238651501174
S019,Po7.,0.11189671072855825,0.10205963725791577,0.009837073470642485
S019,Po3.,0.08043856952556615,0.10277692386515012,-0.022338354339583977
S019,Poz.,0.044574239163848756,0.10011271646685112,-0.05553847730300236
S019,Po4.,0.07982375243365099,0.10134235065068142,-0.021518598217030435
S019,Po8.,0.12111896710728558,0.08679167947535608,0.03432728763192949
S019,O1..,0.08904600881237831,0.09529664924684907,-0.006250640434470753
S019,Oz..,0.06353109949789937,0.07654472794343682,-0.013013628445537453
S019,O2..,0.07736448406599036,0.08535710626088738,-0.00799262219489702
S019,Iz..,0.06137923967619633,0.06148170919151552,-0.00010246951531919096
S020,Fc5.,0.11138436315196229,0.0906855210574854,0.020698842094476894
S020,Fc3.,0.12337329644430782,0.09222256378727328,0.03115073265703454
S020,Fc1.,0.08781637462854801,0.08566451480684496,0.002151859821703045
S020,Fcz.,0.10011271646685112,0.09591146633876421,0.004201250128086906
S020,Fc2.,0.09714110052259453,0.09089046008812378,0.006250640434470753
S020,Fc4.,0.11117942412132391,0.09457936263961471,0.0166000614817092
S020,Fc6.,0.10308433241110769,0.07797930115790552,0.025105031253202167
S020,C5..,0.12532021723537248,0.06978173993237012,0.05553847730300236
S020,C3..,0.1236807049902654,0.08115585613280049,0.04252484885746491
S020,C1..,0.10195716774259658,0.10185469822727738,0.0001024695153191979
S020,Cz..,0.08320524643918434,0.08873860026642073,-0.005533353827236395
S020,C2..,0.10011271646685112,0.08904600881237831,0.011066707654472804
S020,C4..,0.12060661953068962,0.06465826416641049,0.055948355364279126
S020,C6..,0.07541756327492571,0.07306076442258429,0.002356798852341427
S020,Cp5.,0.12409058305154216,0.06896198380981658,0.055128599241725584
S020,Cp3.,0.11927451583154011,0.07613484988216006,0.043139665949380054
S020,Cp1.,0.09150527718003894,0.09089046008812378,0.0006148170919151597
S020,Cpz.,0.09806332616046726,0.09611640536940261,0.001946920791064649
S020,Cp2.,0.09570652730812583,0.08177067322471565,0.013935854083410179
S020,Cp4.,0.11025719848345117,0.08781637462854801,0.02244082385490316
S020,Cp6.,0.08853366123578235,0.06978173993237012,0.01875192130341223
S020,Fp1.,0.059534788400450865,0.07480274618301055,-0.01526795778255969
S020,Fpz.,0.05676811148683267,0.0700891484783277,-0.013321036991495033
S020,Fp2.,0.05441131263449124,0.06373603852853776,-0.009324725894046523
S020,Af7.,0.07295829490726509,0.07101137411620043,0.001946920791064663
S020,Af3.,0.048468080745978075,0.07849164873450148,-0.03002356798852341
S020,Afz.,0.017214878573624345,0.08125832564811969,-0.06404344707449534
S020,Af4.,0.03996311097448509,0.07582744133620248,-0.035864330361717385
S020,Af8.,0.0563582334255559,0.07162619120811559,-0.01526795778255969
S020,F7..,0.03668408648427093,0.07080643508556204,-0.03412234860129112
S020,F5..,0.017624756634901116,0.08484475868429142,-0.0672200020493903
S020,F3..,0.01250128086894149,0.08699661850599447,-0.07449533763705297
S020,F1..,0.030843324111076955,0.09099292960344298,-0.06014960549236602
S020,Fz..,0.020084025002561737,0.08443488062301466,-0.06435085562045292
S020,F2..,0.020698842094476894,0.09150527718003894,-0.07080643508556204
S020,F4..,0.022338354339583973,0.08966082590429347,-0.0673224715647095
S020,F6..,0.017522287119581925,0.07756942309662876,-0.060047135977046834
S020,F8..,0.05533353827236397,0.07859411824982068,-0.02326057997745671
S020,Ft7.,0.0823854903166308,0.06168664822215391,0.020698842094476887
S020,Ft8.,0.126139973357926,0.0921200942719541,0.03401987908597191
S020,T7..,0.13546469925197255,0.08966082590429347,0.045803873347679075
S020,T8..,0.10349421047238447,0.08300030740854596,0.02049390306383851
S020,T9..,0.06978173993237012,0.05246439184342658,0.017317348088943543
S020,T10.,0.05758786760938621,0.05666564197151348,0.0009222256378727325
S020,Tp7.,0.06537555077364485,0.08146326467875807,-0.016087713905113224
S020,Tp8.,0.11046213751408956,0.07213853878471155,0.03832359872937802
S020,P7..,0.07603238036684086,0.10113741162004304,-0.02510503125320218
S020,P5..,0.07931140485705503,0.0988830822830208,-0.019571677425965772
S020,P3..,0.09365713700174198,0.09437442360897633,-0.0007172866072343437
S020,P1..,0.10011271646685112,0.09058305154216621,0.009529664924684905
S020,Pz..,0.09560405779280665,0.09314478942514602,0.0024592683676606247
S020,P2..,0.0411927451583154,0.08607439286812173,-0.04488164770980633
S020,P4..,0.10328927144174609,0.07736448406599036,0.025924787375755723
S020,P6..,0.10933497284557844,0.08300030740854596,0.026334665437032487
S020,P8..,0.10626088738600266,0.07439286812173379,0.03186801926426887
S020,Po7.,0.09058305154216621,0.10790039963110974,-0.01731734808894353
S020,Po3.,0.10769546060047136,0.10677323496259862,0.0009222256378727395
S020,Poz.,0.08156573419407726,0.09416948457833794,-0.01260375038426069
S020,Po4.,0.06957680090173174,0.06947433138641254,0.0001024695153191979
S020,Po8.,0.09437442360897633,0.08002869146428937,0.014345732144686957
S020,O1..,0.08750896608259043,0.10001024695153192,-0.012501280868941492
S020,Oz..,0.05123475765959627,0.10390408853366123,-0.05266933087406496
S020,O2..,0.09724357003791372,0.09857567373706322,-0.0013321036991495033
S020,Iz..,0.02510503125320217,0.059124910339174094,-0.03401987908597193
S021,Fc5.,0.05779280664002459,0.09714110052259453,-0.03934829388256994
S021,Fc3.,0.06209652628343068,0.09416948457833794,-0.032072958294907264
S021,Fc1.,0.06588789835024081,0.07285582539194589,-0.006967927041705083
S021,Fcz.,0.0645557946510913,0.08228302080131161,-0.017727226150220307
S021,Fc2.,0.06855210574853982,0.08412747207705708,-0.015575366328517262
S021,Fc4.,0.06783481914130546,0.08248795983195,-0.014653140690644537
S021,Fc6.,0.06599036786555999,0.07531509375960652,-0.009324725894046523
S021,C5..,0.029613689927246643,0.06055948355364279,-0.030945793626396146
S021,C3..,0.06148170919151552,0.07285582539194589,-0.01137411620043037
S021,C1..,0.06168664822215391,0.07459780715237217,-0.012911158930218262
S021,Cz..,0.06096936161491956,0.06844963623322062,-0.007480274618301058
S021,C2..,0.05789527615534378,0.0823854903166308,-0.024490214161287015
S021,C4..,0.06547802028896403,0.1057485398094067,-0.040270519520442666
S021,C6..,0.07234347781534993,0.11107695460600471,-0.03873347679065478
S021,Cp5.,0.04713597704682857,0.05728045906342863,-0.010144482016600058
S021,Cp3.,0.06035454452300441,0.07490521569832975,-0.014550671175325346
S021,Cp1.,0.06230146531406906,0.08556204529152577,-0.023260579977456702
S021,Cpz.,0.05420637360385285,0.07920893534173583,-0.025002561737882976
S021,Cp2.,0.062403934829388254,0.0932472589404652,-0.03084332411107695
S021,Cp4.,0.06681012398811353,0.09939542985961676,-0.032585305871503226
S021,Cp6.,0.0674249410800287,0.10267445434983093,-0.03524951326980223
S021,Fp1.,0.01977661645660416,0.10349421047238447,-0.0837175940157803
S021,Fpz.,0.019161799364689005,0.11035966799877037,-0.09119786863408136
S021,Fp2.,0.01885439081873143,0.10318680192642689,-0.08433241110769546
S021,Af7.,0.019981555487242546,0.10380161901834205,-0.0838200635310995
S021,Af3.,0.03586433036171739,0.10400655804898043,-0.06814222768726304
S021,Afz.,0.03381494005533354,0.10380161901834205,-0.0699866789630085
S021,Af4.,0.03350753150937596,0.10769546060047136,-0.0741879290910954
S021,Af8.,0.021108720155753664,0.10421149707961881,-0.08310277692386514
S021,F7..,0.04877548929193565,0.11199918024387745,-0.0632236909519418
S021,F5..,0.05102981862895788,0.10103494210472384,-0.05000512347576596
S021,F3..,0.05061994056768111,0.10216210677323496,-0.05154216620555385
S021,F1..,0.06209652628343068,0.03668408648427093,0.025412439799159754
S021,Fz..,0.0576903371247054,0.10472384465621477,-0.04703350753150937
S021,F2..,0.06537555077364485,0.0576903371247054,0.007685213648939447
S021,F4..,0.04877548929193565,0.10544113126344912,-0.05666564197151347
S021,F6..,0.0439594220719336,0.11046213751408956,-0.06650271544215597
S021,F8..,0.04160262321959217,0.11712265600983707,-0.0755200327902449
S021,Ft7.,0.05379649554257608,0.10820780817706732,-0.05441131263449124
S021,Ft8.,0.07275335587662671,0.11322881442770776,-0.04047545855108105
S021,T7..,0.04754585510810534,0.08453735013833384,-0.0369914950302285
S021,T8..,0.06219899579874987,0.10677323496259862,-0.04457423916384875
S021,T9..,0.03863100727533559,0.09427195409365714,-0.05564094681832155
S021,T10.,0.06691259350343273,0.11384363151962291,-0.04693103801619018
S021,Tp7.,0.03760631212214366,0.06752741059534788,-0.02992109847320422
S021,Tp8.,0.06189158725279229,0.1072855825391946,-0.045393995286402304
S021,P7..,0.03524951326980223,0.05031253202172354,-0.015063018751921307
S021,P5..,0.04139768418895379,0.06855210574853982,-0.02715442155958603
S021,P3..,0.04734091607746695,0.07623731939747926,-0.028896403320012302
S021,P1..,0.05041500153704273,0.0810533866174813,-0.030638385080438563
S021,Pz..,0.05307920893534174,0.08576698432216416,-0.032687775386822424
S021,P2..,0.05461625166512962,0.09171021621067732,-0.0370939645455477
S021,P4..,0.058715032277897324,0.09099292960344298,-0.03227789732554565
S021,P6..,0.0645557946510913,0.09632134440004099,-0.031765549748949684
S021,P8..,0.06189158725279229,0.10123988113536223,-0.03934829388256993
S021,Po7.,0.03760631212214366,0.059534788400450865,-0.021928476278307206
S021,Po3.,0.04211497079618813,0.07459780715237217,-0.03248283635618404
S021,Poz.,0.04693103801619018,0.0838200635310995,-0.036889025514909315
S021,Po4.,0.05451378214981043,0.08761143559790963,-0.033097653448099194
S021,Po8.,0.05646070294087509,0.09365713700174198,-0.037196434060866895
S021,O1..,0.03955323291320832,0.05400143457321447,-0.014448201660006148
S021,Oz..,0.03996311097448509,0.06250640434470744,-0.022543293370222352
S021,O2..,0.047443385592786144,0.07357311199918025,-0.026129726406394105
S021,Iz..,0.03545445230044062,0.047750794138743724,-0.012296341838303103
S022,Fc5.,0.023977866584691053,0.07838917921918229,-0.054411312634491234
S022,Fc3.,0.024285275130648633,0.09488677118557229,-0.07060149605492366
S022,Fc1.,0.022645762885541553,0.07121631314683882,-0.048570550261297266
S022,Fcz.,0.024387744645967824,0.08218055128599241,-0.05779280664002459
S022,Fc2.,0.026129726406394098,0.08422994159237626,-0.058100215185982164
S022,Fc4.,0.03781125115278205,0.08781637462854801,-0.05000512347576596
S022,Fc6.,0.022235884824264782,0.08750896608259043,-0.06527308125832565
S022,C5..,0.03504457423916385,0.09314478942514602,-0.05810021518598217
S022,C3..,0.03125320217235372,0.08422994159237626,-0.05297673942002254
S022,C1..,0.04139768418895379,0.08976329541961267,-0.048365611230658884
S022,Cz..,0.04170509273491137,0.08668920996003689,-0.04498411722512552
S022,C2..,0.06855210574853982,0.07377805102981863,-0.005225945281278815
S022,C4..,0.05799774567066298,0.09632134440004099,-0.03832359872937801
S022,C6..,0.03740137309150528,0.09488677118557229,-0.05748539809406701
S022,Cp5.,0.04703350753150937,0.09837073470642484,-0.05133722717491546
S022,Cp3.,0.05133722717491546,0.08863613075110155,-0.037298903576186086
S022,Cp1.,0.052259452812788196,0.0933497284557844,-0.04109027564299621
S022,Cpz.,0.04918536735321242,0.09796085664514807,-0.048775489291935654
S022,Cp2.,0.04334460498001844,0.08422994159237626,-0.04088533661235782
S022,Cp4.,0.0439594220719336,0.09837073470642484,-0.054411312634491234
S022,Cp6.,0.04272978788810329,0.08884106978173993,-0.04611128189363664
S022,Fp1.,0.018444512757454658,0.06363356901321857,-0.04518905625576391
S022,Fpz.,0.018034634696177887,0.04713597704682857,-0.029101342350650684
S022,Fp2.,0.01772722615022031,0.05932984936981248,-0.04160262321959217
S022,Af7.,0.020493903063838508,0.07736448406599036,-0.05687058100215185
S022,Af3.,0.017624756634901116,0.09171021621067732,-0.0740854595757762
S022,Afz.,0.01772722615022031,0.06834716671790142,-0.05061994056768111
S022,Af4.,0.01741981760426273,0.08607439286812173,-0.068654575263859
S022,Af8.,0.0233630494927759,0.04170509273491137,-0.018342043242135467
S022,F7..,0.02090378112511528,0.08474228916897224,-0.06383850804385696
S022,F5..,0.018444512757454658,0.10687570447791782,-0.08843119172046315
S022,F3..,0.018751921303412234,0.07111384363151962,-0.052361922328107394
S022,F1..,0.019161799364689005,0.08228302080131161,-0.0631212214366226
S022,Fz..,0.018034634696177887,0.07357311199918025,-0.05553847730300236
S022,F2..,0.01772722615022031,0.08013116097960857,-0.06240393482938826
S022,F4..,0.01731734808894354,0.07920893534173583,-0.061891587252792285
S022,F6..,0.01731734808894354,0.08074597807152373,-0.06342862998258018
S022,F8..,0.019161799364689005,0.0781842401885439,-0.059022440823854896
S022,Ft7.,0.03371247054001435,0.08207808177067323,-0.048365611230658884
S022,Ft8.,0.03166308023363049,0.03811865969873963,-0.006455579465109135
S022,T7..,0.04139768418895379,0.09099292960344298,-0.04959524541448919
S022,T8..,0.03832359872937801,0.08412747207705708,-0.04580387334767907
S022,T9..,0.037298903576186086,0.09529664924684907,-0.05799774567066298
S022,T10.,0.06773234962598627,0.05666564197151348,0.011066707654472797
S022,Tp7.,0.04836561123065888,0.0838200635310995,-0.03545445230044062
S022,Tp8.,0.06660518495747515,0.08955835638897428,-0.022953171431499123
S022,P7..,0.06701506301875192,0.0839225330464187,-0.01690747002766678
S022,P5..,0.06527308125832565,0.09693616149195615,-0.0316630802336305
S022,P3..,0.06271134337534584,0.0837175940157803,-0.02100625064043446
S022,P1..,0.06076442258428118,0.09662875294599857,-0.03586433036171739
S022,Pz..,0.05041500153704273,0.08904600881237831,-0.03863100727533558
S022,P2..,0.05666564197151348,0.09263244184855006,-0.03596679987703658
S022,P4..,0.059842196946408445,0.09396454554769956,-0.03412234860129112
S022,P6..,0.06127677016087714,0.09089046008812378,-0.02961368992724664
S022,P8..,0.07521262424428732,0.08730402705195205,-0.012091402807664728
S022,Po7.,0.07736448406599036,0.1002151859821703,-0.02285070191617994
S022,Po3.,0.07172866072343478,0.10062506404344708,-0.028896403320012296
S022,Poz.,0.07613484988216006,0.07838917921918229,-0.002254329337022229
S022,Po4.,0.06373603852853776,0.07931140485705503,-0.015575366328517262
S022,Po8.,0.08125832564811969,0.08566451480684496,-0.004406189158725274
S022,O1..,0.07531509375960652,0.0906855210574854,-0.01537042729787888
S022,Oz..,0.07777436212726714,0.0782867097038631,-0.0005123475765959618
S022,O2..,0.06762988011066708,0.07090890460088124,-0.0032790244902141663
S022,Iz..,0.08679167947535608,0.0850496977149298,0.001741981760426281
S023,Fc5.,0.11794241213239061,0.08761143559790963,0.030330976534480983
S023,Fc3.,0.08873860026642073,0.10267445434983093,-0.013935854083410193
S023,Fc1.,0.06363356901321857,0.08177067322471565,-0.018137104211497085
S023,Fcz.,0.06824469720258224,0.05820268470130136,0.010042012501280874
S023,Fc2.,0.043447074495337634,0.05410390408853366,-0.010656829593196027
S023,Fc4.,0.10216210677323496,0.0782867097038631,0.023875397069371862
S023,Fc6.,0.11087201557536633,0.10913003381494006,0.0017419817604262672
S023,C5..,0.06404344707449534,0.10205963725791577,-0.03801619018342042
S023,C3..,0.07592991085152168,0.10062506404344708,-0.024695153191925404
S023,C1..,0.059432318885131674,0.08013116097960857,-0.020698842094476894
S023,Cz..,0.06055948355364279,0.07080643508556204,-0.010246951531919256
S023,C2..,0.05072241008300031,0.06035454452300441,-0.009632134440004096
S023,C4..,0.05697305051747105,0.03545445230044062,0.021518598217030428
S023,C6..,0.10236704580387335,0.05410390408853366,0.048263141715339686
S023,Cp5.,0.10769546060047136,0.08996823445025105,0.017727226150220307
S023,Cp3.,0.06373603852853776,0.08607439286812173,-0.022338354339583963
S023,Cp1.,0.0674249410800287,0.06691259350343273,0.0005123475765959618
S023,Cpz.,0.06670765447279435,0.04611128189363664,0.02059637257915771
S023,Cp2.,0.052976739420022546,0.04211497079618813,0.010861768623834415
S023,Cp4.,0.05605082487959832,0.04365201352597602,0.012398811353622294
S023,Cp6.,0.05748539809406702,0.052054513782149814,0.005430884311917204
S023,Fp1.,0.08422994159237626,0.040475458551081055,0.04375448304129521
S023,Fpz.,0.07347064248386105,0.04221744031150733,0.03125320217235372
S023,Fp2.,0.08125832564811969,0.06055948355364279,0.0206988420944769
S023,Af7.,0.09529664924684907,0.04682856850087099,0.048468080745978075
S023,Af3.,0.07972128291833179,0.08259042934726919,-0.0028691464289374025
S023,Afz.,0.08412747207705708,0.07910646582641664,0.0050210062506404335
S023,Af4.,0.08351265498514192,0.07654472794343682,0.0069679270417050965
S023,Af8.,0.09150527718003894,0.0947843016702531,-0.0032790244902141663
S023,F7..,0.11445844861153806,0.08894353929705913,0.02551490931447893
S023,F5..,0.0839225330464187,0.08925094784301671,-0.005328414796598013
S023,F3..,0.07715954503535198,0.0700891484783277,0.0070703965570242805
S023,F1..,0.0757249718208833,0.06701506301875192,0.008709908802131378
S023,Fz..,0.059842196946408445,0.04990265396044677,0.009939542985961676
S023,F2..,0.06885951429449738,0.05338661748129931,0.015472896813198071
S023,F4..,0.06588789835024081,0.05799774567066298,0.007890152679577829
S023,F6..,0.10667076544727944,0.08904600881237831,0.017624756634901123
S023,F8..,0.10779793011579056,0.036991495030228506,0.07080643508556206
S023,Ft7.,0.10738805205451378,0.05451378214981043,0.05287426990470335
S023,Ft8.,0.07982375243365099,0.11548314376473,-0.03565939133107901
S023,T7..,0.10369914950302285,0.039860641459165895,0.06383850804385696
S023,T8..,0.08535710626088738,0.10339174095706527,-0.018034634696177887
S023,T9..,0.10503125320217235,0.09416948457833794,0.010861768623834409
S023,T10.,0.0042012501280868945,0.01567783584383646,-0.011476585715749565
S023,Tp7.,0.1167127779485603,0.06332616046726099,0.05338661748129932
S023,Tp8.,0.06250640434470744,0.0384260682446972,0.024080336100010244
S023,P7..,0.03873347679065478,0.09652628343067937,-0.05779280664002459
S023,P5..,0.06629777641151757,0.08289783789322676,-0.016600061481709186
S023,P3..,0.04365201352597602,0.09058305154216621,-0.04693103801619019
S023,P1..,0.05451378214981043,0.059637257915770056,-0.0051234757659596245
S023,Pz..,0.060252075007685216,0.05687058100215186,0.0033814940055333573
S023,P2..,0.048263141715339686,0.04611128189363664,0.002151859821703045
S023,P4..,0.043447074495337634,0.07070396557024285,-0.027256891074905212
S023,P6..,0.03340506199405677,0.06189158725279229,-0.028486525258735525
S023,P8..,0.036581616968951736,0.044061891587252794,-0.007480274618301058
S023,Po7.,0.03186801926426888,0.08668920996003689,-0.054821190695768005
S023,Po3.,0.03811865969873963,0.1015472896813198,-0.06342862998258017
S023,Poz.,0.0426273183727841,0.044881647709806335,-0.002254329337022236
S023,Po4.,0.020186494517880932,0.03535198278512142,-0.015165488267240491
S023,Po8.,0.019879085971923352,0.037298903576186086,-0.017419817604262734
S023,O1..,0.029921098473204222,0.06199405676811149,-0.032072958294907264
S023,Oz..,0.024797622707244595,0.036069269392355774,-0.01127164668511118
S023,O2..,0.06896198380981658,0.0947843016702531,-0.025822317860436525
S023,Iz..,0.01537042729787888,0.024797622707244595,-0.009427195409365714
S024,Fc5.,0.08156573419407726,0.07388052054513781,0.00768521364893944
S024,Fc3.,0.08146326467875807,0.07275335587662671,0.008709908802131364
S024,Fc1.,0.06014960549236602,0.07121631314683882,-0.011066707654472804
S024,Fcz.,0.06783481914130546,0.07193359975407317,-0.004098780612767708
S024,Fc2.,0.0850496977149298,0.07736448406599036,0.00768521364893944
S024,Fc4.,0.08197561225535403,0.06681012398811353,0.015165488267240498
S024,Fc6.,0.047853263654062915,0.06486320319704887,-0.017009939542985957
S024,C5..,0.06844963623322062,0.06711753253407111,0.0013321036991495033
S024,C3..,0.07439286812173379,0.0700891484783277,0.00430371964340609
S024,C1..,0.07398299006045701,0.07306076442258429,0.0009222256378727256
S024,Cz..,0.0755200327902449,0.07746695358130956,-0.001946920791064663
S024,C2..,0.07511015472896813,0.07039655702428528,0.004713597704682854
S024,C4..,0.07541756327492571,0.06435085562045291,0.011066707654472804
S024,C6..,0.06957680090173174,0.05840762373193975,0.011169177169791988
S024,Cp5.,0.06353109949789937,0.06517061174300645,-0.0016395122451070832
S024,Cp3.,0.0630187519213034,0.06629777641151757,-0.0032790244902141663
S024,Cp1.,0.07090890460088124,0.07408545957577621,-0.0031765549748949684
S024,Cpz.,0.07316323393790347,0.07521262424428732,-0.002049390306383847
S024,Cp2.,0.06445332513577211,0.06937186187109334,-0.004918536735321236
S024,Cp4.,0.06517061174300645,0.06332616046726099,0.001844451275745465
S024,Cp6.,0.05820268470130136,0.05523106875704478,0.0029716159442565795
S024,Fp1.,0.07951634388769341,0.07869658776513987,0.0008197561225535416
S024,Fpz.,0.05410390408853366,0.07490521569832975,-0.02080131160979609
S024,Fp2.,0.11927451583154011,0.0757249718208833,0.04354954401065682
S024,Af7.,0.0837175940157803,0.08064350855620453,0.0030740854595757705
S024,Af3.,0.07049902653960446,0.0796188134030126,-0.009119786863408141
S024,Afz.,0.04990265396044677,0.07244594733066913,-0.02254329337022236
S024,Af4.,0.09017317348088943,0.07183113023875397,0.018342043242135467
S024,Af8.,0.11865969873962497,0.07705707552003278,0.04160262321959218
S024,F7..,0.05246439184342658,0.06691259350343273,-0.014448201660006155
S024,F5..,0.08320524643918434,0.07521262424428732,0.00799262219489702
S024,F3..,0.07316323393790347,0.07644225842811764,-0.0032790244902141663
S024,F1..,0.0549236602110872,0.06773234962598627,-0.012808689414899072
S024,Fz..,0.047853263654062915,0.07285582539194589,-0.025002561737882976
S024,F2..,0.06906445332513578,0.06722000204939031,0.001844451275745465
S024,F4..,0.08310277692386515,0.07326570345322267,0.009837073470642485
S024,F6..,0.048263141715339686,0.07295829490726509,-0.024695153191925404
S024,F8..,0.043754483041295214,0.07388052054513781,-0.0301260375038426
S024,Ft7.,0.04928783686853161,0.07162619120811559,-0.022338354339583977
S024,Ft8.,0.05840762373193975,0.059944666461727636,-0.0015370427297878853
S024,T7..,0.05676811148683267,0.06967927041705092,-0.012911158930218256
S024,T8..,0.055948355364279126,0.05307920893534174,0.0028691464289373886
S024,T9..,0.05707552003279025,0.07060149605492366,-0.013525976022133415
S024,T10.,0.0411927451583154,0.048468080745978075,-0.007275335587662676
S024,Tp7.,0.056563172456194286,0.06629777641151757,-0.009734603955323287
S024,Tp8.,0.04918536735321242,0.05164463572087304,-0.0024592683676606247
S024,P7..,0.05605082487959832,0.06465826416641049,-0.008607439286812173
S024,P5..,0.06014960549236602,0.0687570447791782,-0.00860743928681218
S024,P3..,0.05840762373193975,0.0687570447791782,-0.010349421047238447
S024,P1..,0.06896198380981658,0.07060149605492366,-0.0016395122451070832
S024,Pz..,0.06445332513577211,0.07080643508556204,-0.006353109949789937
S024,P2..,0.0631212214366226,0.06394097755917615,-0.0008197561225535416
S024,P4..,0.0632236909519418,0.06250640434470744,0.0007172866072343576
S024,P6..,0.051542166205553845,0.05420637360385285,-0.0026642073982990067
S024,P8..,0.05061994056768111,0.05092734911363869,-0.0003074085459575798
S024,Po7.,0.04713597704682857,0.07326570345322267,-0.026129726406394098
S024,Po3.,0.059842196946408445,0.06906445332513578,-0.009222256378727332
S024,Poz.,0.059227379854493285,0.06373603852853776,-0.004508658674044479
S024,Po4.,0.00563582334255559,0.05840762373193975,-0.05277180038938416
S024,Po8.,0.05133722717491546,0.06394097755917615,-0.012603750384260683
S024,O1..,0.05789527615534378,0.06824469720258224,-0.010349421047238454
S024,Oz..,0.058715032277897324,0.06404344707449534,-0.00532841479659802
S024,O2..,0.05881750179321652,0.0645557946510913,-0.005738292857874784
S024,Iz..,0.0604570140383236,0.07203606926939235,-0.011579055231068752
S025,Fc5.,0.07644225842811764,0.10994978993749359,-0.03350753150937595
S025,Fc3.,0.07808177067322472,0.09140280766471974,-0.01332103699149502
S025,Fc1.,0.07183113023875397,0.07295829490726509,-0.0011271646685111214
S025,Fcz.,0.09693616149195615,0.08535710626088738,0.011579055231068766
S025,Fc2.,0.0934521979711036,0.09119786863408136,0.002254329337022243
S025,Fc4.,0.09601393585408341,0.09980530792089354,-0.003791372066810128
S025,Fc6.,0.08187314274003483,0.10831027769238652,-0.026437134952351685
S025,C5..,0.09017317348088943,0.09386207603238036,-0.00368890255149093
S025,C3..,0.09109539911876217,0.10103494210472384,-0.009939542985961669
S025,C1..,0.08084844758684291,0.10042012501280868,-0.019571677425965772
S025,Cz..,0.08146326467875807,0.08802131365918639,-0.006558048980428319
S025,C2..,0.09857567373706322,0.09396454554769956,0.004611128189363656
S025,C4..,0.09386207603238036,0.09611640536940261,-0.002254329337022243
S025,C6..,0.055640946818321546,0.07203606926939235,-0.016395122451070804
S025,Cp5.,0.09355466748642279,0.10257198483451173,-0.009017317348088943
S025,Cp3.,0.08586945383748334,0.10349421047238447,-0.017624756634901123
S025,Cp1.,0.09355466748642279,0.10369914950302285,-0.010144482016600065
S025,Cpz.,0.09560405779280665,0.09437442360897633,0.0012296341838303193
S025,Cp2.,0.09130033814940056,0.09642381391536017,-0.0051234757659596175
S025,Cp4.,0.10482631417153397,0.08966082590429347,0.015165488267240498
S025,Cp6.,0.09734603955323291,0.10072753355876626,-0.0033814940055333503
S025,Fp1.,0.09037811251152782,0.09683369197663695,-0.006455579465109135
S025,Fpz.,0.07582744133620248,0.10093247258940465,-0.025105031253202167
S025,Fp2.,0.07316323393790347,0.0919151552413157,-0.01875192130341223
S025,Af7.,0.10287939338046931,0.0852546367455682,0.01762475663490111
S025,Af3.,0.06660518495747515,0.09775591761450968,-0.031150732657034524
S025,Afz.,0.02705195204426683,0.10626088738600266,-0.07920893534173583
S025,Af4.,0.0467260989855518,0.09119786863408136,-0.04447176964852956
S025,Af8.,0.08361512450046112,0.10072753355876626,-0.017112409058305147
S025,F7..,0.06383850804385695,0.09765344809919049,-0.033814940055333545
S025,F5..,0.036479147453632545,0.10544113126344912,-0.06896198380981658
S025,F3..,0.06885951429449738,0.10001024695153192,-0.03115073265703454
S025,F1..,0.04231990982682652,0.09222256378727328,-0.04990265396044676
S025,Fz..,0.08853366123578235,0.0879188441438672,0.0006148170919151458
S025,F2..,0.03934829388256993,0.0864842709293985,-0.04713597704682857
S025,F4..,0.03801619018342043,0.09867814325238242,-0.060661953068961987
S025,F6..,0.04764832462342453,0.10482631417153397,-0.05717798954810944
S025,F8..,0.027256891074905216,0.08136079516343887,-0.05410390408853366
S025,Ft7.,0.059432318885131674,0.10462137514089559,-0.045189056255763915
S025,Ft8.,0.068654575263859,0.08556204529152577,-0.016907470027666766
S025,T7..,0.07490521569832975,0.06209652628343068,0.012808689414899072
S025,T8..,0.09847320422174403,0.09939542985961676,-0.0009222256378727256
S025,T9..,0.09232503330259248,0.08402500256173788,0.0083000307408546
S025,T10.,0.003381494005533354,0.05307920893534174,-0.04969771492980839
S025,Tp7.,0.0893534173583359,0.09601393585408341,-0.006660518495747517
S025,Tp8.,0.09017317348088943,0.09796085664514807,-0.007787683164258638
S025,P7..,0.11599549134132596,0.10431396659493801,0.01168152474638795
S025,P5..,0.101649759196639,0.1084127472077057,-0.006762988011066701
S025,P3..,0.09816579567578645,0.10339174095706527,-0.005225945281278815
S025,P1..,0.09263244184855006,0.10042012501280868,-0.007787683164258624
S025,Pz..,0.0906855210574854,0.10205963725791577,-0.01137411620043037
S025,P2..,0.07603238036684086,0.09099292960344298,-0.014960549236602116
S025,P4..,0.09130033814940056,0.10175222871195819,-0.01045189056255763
S025,P6..,0.10072753355876626,0.09949789937493596,0.0012296341838303054
S025,P8..,0.0932472589404652,0.0946818321549339,-0.0014345732144687012
S025,Po7.,0.11312634491238857,0.11312634491238857,0.0
S025,Po3.,0.10359667998770365,0.10072753355876626,0.0028691464289373886
S025,Poz.,0.1070806435085562,0.1084127472077057,-0.0013321036991495033
S025,Po4.,0.07931140485705503,0.10175222871195819,-0.02244082385490316
S025,Po8.,0.11958192437749769,0.11517573521877242,0.004406189158725274
S025,O1..,0.12726713802643713,0.12070908904600881,0.006558048980428319
S025,Oz..,0.11240905830515421,0.11486832667281484,-0.0024592683676606247
S025,O2..,0.0947843016702531,0.08894353929705913,0.005840762373193975
S025,Iz..,0.12747207705707553,0.12747207705707553,0.0
S026,Fc5.,0.01291115893021826,0.11076954606004713,-0.09785838712982887
S026,Fc3.,0.012603750384260683,0.10390408853366123,-0.09130033814940056
S026,Fc1.,0.05266933087406497,0.09939542985961676,-0.046726098985551794
S026,Fcz.,0.01854698227277385,0.09580899682344503,-0.07726201455067118
S026,Fc2.,0.018444512757454658,0.10236704580387335,-0.0839225330464187
S026,Fc4.,0.03514704375448304,0.0865867404447177,-0.05143969669023466
S026,Fc6.,0.04283225740342248,0.10687570447791782,-0.06404344707449533
S026,C5..,0.028486525258735525,0.0617891177374731,-0.033302592478737576
S026,C3..,0.07726201455067118,0.09416948457833794,-0.016907470027666766
S026,C1..,0.05061994056768111,0.10226457628855415,-0.051644635720873036
S026,Cz..,0.05000512347576596,0.10113741162004304,-0.05113228814427708
S026,C2..,0.051542166205553845,0.101649759196639,-0.05010759299108516
S026,C4..,0.0631212214366226,0.07213853878471155,-0.009017317348088943
S026,C6..,0.10144482016600062,0.11650783891792192,-0.0150630187519213
S026,Cp5.,0.08402500256173788,0.10933497284557844,-0.025309970283840563
S026,Cp3.,0.08822625268982477,0.10687570447791782,-0.018649451788093047
S026,Cp1.,0.07664719745875602,0.10308433241110769,-0.02643713495235167
S026,Cpz.,0.0932472589404652,0.11507326570345322,-0.021826006762988015
S026,Cp2.,0.09099292960344298,0.10749052156983298,-0.01649759196639
S026,Cp4.,0.10472384465621477,0.09601393585408341,0.008709908802131364
S026,Cp6.,0.07090890460088124,0.08627933189876012,-0.01537042729787888
S026,Fp1.,0.026744543498309254,0.09990777743621272,-0.07316323393790347
S026,Fpz.,0.030330976534480993,0.09816579567578645,-0.06783481914130546
S026,Fp2.,0.024695153191925404,0.09396454554769956,-0.06926939235577416
S026,Af7.,0.04221744031150733,0.08269289886258838,-0.04047545855108105
S026,Af3.,0.0343272876319295,0.09765344809919049,-0.063326160467261
S026,Afz.,0.018239573726816272,0.09878061276770161,-0.08054103904088535
S026,Af4.,0.03104826314171534,0.09406701506301875,-0.0630187519213034
S026,Af8.,0.04713597704682857,0.07797930115790552,-0.03084332411107695
S026,F7..,0.028384055743416334,0.07931140485705503,-0.05092734911363869
S026,F5..,0.019161799364689005,0.0988830822830208,-0.07972128291833179
S026,F3..,0.013628445537452608,0.10687570447791782,-0.0932472589404652
S026,F1..,0.01526795778255969,0.10697817399323702,-0.09171021621067732
S026,Fz..,0.016600061481709193,0.10482631417153397,-0.08822625268982479
S026,F2..,0.011783994261707143,0.10216210677323496,-0.09037811251152782
S026,F4..,0.017624756634901116,0.10318680192642689,-0.08556204529152578
S026,F6..,0.017214878573624345,0.09232503330259248,-0.07511015472896813
S026,F8..,0.01537042729787888,0.08873860026642073,-0.07336817296854185
S026,Ft7.,0.01455067117532534,0.08248795983195,-0.06793728865662466
S026,Ft8.,0.013833384568090993,0.10902756429962086,-0.09519417973152987
S026,T7..,0.04887795880725484,0.1209140280766472,-0.07203606926939235
S026,T8..,0.05102981862895788,0.11056460702940875,-0.059534788400450865
S026,T9..,0.10656829593196024,0.11158930218260067,-0.0050210062506404335
S026,T10.,0.09529664924684907,0.10697817399323702,-0.01168152474638795
S026,Tp7.,0.10380161901834205,0.11046213751408956,-0.006660518495747517
S026,Tp8.,0.10318680192642689,0.1072855825391946,-0.004098780612767708
S026,P7..,0.10103494210472384,0.09980530792089354,0.0012296341838303054
S026,P5..,0.08566451480684496,0.10615841787068347,-0.02049390306383851
S026,P3..,0.08023363049492777,0.11783994261707142,-0.03760631212214366
S026,P1..,0.10953991187621683,0.11517573521877242,-0.005635823342555593
S026,Pz..,0.10359667998770365,0.10810533866174812,-0.004508658674044472
S026,P2..,0.07674966697407522,0.10492878368685316,-0.028179116712777938
S026,P4..,0.07234347781534993,0.12070908904600881,-0.048365611230658884
S026,P6..,0.08412747207705708,0.1167127779485603,-0.032585305871503226
S026,P8..,0.09355466748642279,0.08720155753663285,0.006353109949789937
S026,Po7.,0.08986576493493185,0.11292140588175018,-0.02305564094681832
S026,Po3.,0.08463981965365304,0.1140485705502613,-0.029408750896608257
S026,Poz.,0.0932472589404652,0.10667076544727944,-0.013423506506814231
S026,Po4.,0.05010759299108515,0.10134235065068142,-0.05123475765959627
S026,Po8.,0.09601393585408341,0.11158930218260067,-0.015575366328517262
S026,O1..,0.0919151552413157,0.10964238139153602,-0.01772722615022032
S026,Oz..,0.10001024695153192,0.11148683266728149,-0.011476585715749568
S026,O2..,0.08843119172046317,0.06834716671790142,0.020084025002561748
S026,Iz..,0.09355466748642279,0.12163131468388154,-0.028076647197458754
S027,Fc5.,0.028281586228097143,0.05533353827236397,-0.02705195204426683
S027,Fc3.,0.04631622092427503,0.06568295931960241,-0.019366738395327383
S027,Fc1.,0.044164361102571985,0.07152372169279639,-0.027359360590224403
S027,Fcz.,0.02295317143149913,0.08166820370939645,-0.058715032277897324
S027,Fc2.,0.05482119069576801,0.09140280766471974,-0.03658161696895173
S027,Fc4.,0.05646070294087509,0.07029408750896608,-0.013833384568090995
S027,Fc6.,0.06353109949789937,0.06383850804385695,-0.0003074085459575798
S027,C5..,0.08125832564811969,0.05738292857874782,0.02387539706937187
S027,C3..,0.0907879905728046,0.07674966697407522,0.014038323598729377
S027,C1..,0.06394097755917615,0.07060149605492366,-0.006660518495747517
S027,Cz..,0.07613484988216006,0.08300030740854596,-0.006865457526385899
S027,C2..,0.08361512450046112,0.0933497284557844,-0.009734603955323287
S027,C4..,0.07090890460088124,0.08422994159237626,-0.01332103699149502
S027,C6..,0.071318782662158,0.06885951429449738,0.0024592683676606247
S027,Cp5.,0.06967927041705092,0.07736448406599036,-0.00768521364893944
S027,Cp3.,0.07111384363151962,0.0838200635310995,-0.012706219899579874
S027,Cp1.,0.08679167947535608,0.08269289886258838,0.004098780612767708
S027,Cpz.,0.09150527718003894,0.08873860026642073,0.0027666769136182046
